EEG 1, EEG 2, EEG 3, EEG 4, EEG 5, EEG 6, EEG 7, EEG 8, TRIG
421021.800,414588.400,750000.100,750000.100,365761.600,340385.300,350939.200,365199.700,0.000
407079.700,400927.300,750000.100,750000.100,353834.000,329170.600,339261.800,353102.900,0.000
395843.700,389941.300,750000.100,750000.100,344098.300,320035.400,329823.900,343335.600,0.000
385996.400,380316.200,750000.100,750000.100,335493.500,311980.400,321535.700,334768.100,0.000
377244.600,371770.800,750000.100,750000.100,327789.300,304803.600,314168.900,327158.800,0.000
369424.600,364137.100,733534.800,734745.600,320878.300,298379.600,307597.200,320361.900,0.000
362383.600,357258.500,714960.400,716623.700,314651.800,292588.500,301689.200,314239.200,0.000
356000.500,351016.200,698495.000,700554.600,309012.300,287338.000,296336.200,308688.600,0.000
350164.500,345311.000,683755.800,686157.100,303842.400,282545.200,291442.700,303618.600,0.000
344809.100,340076.300,670467.900,673178.100,299094.400,278154.000,286961.500,298974.600,0.000
339892.300,335262.900,658429.900,661414.400,294739.200,274122.600,282849.000,294709.500,0.000
335353.900,330812.600,647448.900,650676.400,290725.400,270395.200,279043.600,290755.000,0.000
331141.000,326687.200,637377.100,640825.300,286995.900,266944.800,275522.800,287098.900,0.000
327223.900,322850.200,628118.800,631762.800,283522.700,263740.300,272254.000,283707.000,0.000
323576.000,319272.000,619567.700,623395.900,280297.000,260754.900,269210.400,280541.400,0.000
320176.300,315930.800,611657.300,615649.400,277303.000,257974.100,266375.100,277590.600,0.000
316991.300,312806.500,604310.800,608450.900,274497.200,255370.000,263718.300,274831.600,0.000
313997.200,309874.100,597463.700,601734.400,271847.700,252926.000,261216.800,272234.600,0.000
311195.800,307125.200,591082.100,595473.400,269368.400,250636.500,258873.600,269804.200,0.000
308574.700,304545.500,585123.000,589627.100,267062.600,248496.700,256684.900,267528.200,0.000
306105.700,302117.600,579536.100,584148.200,264890.900,246484.700,254627.200,265386.500,0.000
303762.100,299817.000,574282.400,578989.900,262817.300,244573.100,252672.900,263355.300,0.000
301562.100,297656.100,569357.400,574154.000,260875.500,242782.300,250842.000,261447.400,0.000
299499.800,295624.300,564735.400,569612.600,259070.000,241110.300,249128.400,259658.800,0.000
297544.600,293699.800,560381.900,565331.000,257363.800,239525.000,247501.700,257963.900,0.000
295678.100,291868.600,556264.400,561280.400,255720.700,238005.200,245937.800,256343.400,0.000
293918.200,290140.200,552373.600,557469.200,254170.500,236574.100,244471.100,254820.000,0.000
292264.200,288512.700,548708.100,553878.100,252718.500,235227.400,243089.500,253384.800,0.000
290699.000,286971.200,545250.600,550474.100,251350.900,233951.000,241780.300,252022.300,0.000
289208.600,285506.100,541967.300,547241.200,250039.600,232738.800,240534.600,250725.700,0.000
287795.100,284116.800,538858.900,544180.700,248796.700,231591.900,239356.200,249498.600,0.000
286465.300,282805.300,535923.700,541289.000,247632.400,230509.400,238244.500,248339.600,0.000
285205.500,281562.300,533140.400,538548.700,246537.300,229485.700,237190.500,247242.400,0.000
283993.600,280371.600,530484.700,535934.500,245476.800,228502.300,236175.600,246191.600,0.000
282840.300,279237.800,527959.300,533447.800,244461.300,227565.200,235207.300,245190.500,0.000
281750.300,278165.500,525568.100,531092.300,243508.600,226680.800,234297.800,244244.500,0.000
280724.600,277149.900,523302.600,528860.300,242621.100,225850.400,233446.600,243354.500,0.000
279750.300,276189.300,521146.900,526738.400,241769.400,225062.800,232638.800,242511.000,0.000
278802.500,275258.500,519083.300,524701.800,240935.200,224298.300,231860.500,241697.000,0.000
277906.900,274377.100,517121.400,522772.100,240152.800,223574.600,231122.500,240921.000,0.000
277066.700,273545.600,515261.000,520943.700,239429.700,222898.000,230428.000,240191.200,0.000
276256.200,272746.000,513481.800,519187.500,238726.900,222243.500,229751.000,239488.300,0.000
275475.700,271980.500,511776.800,517509.800,238038.400,221610.000,229096.000,238814.200,0.000
274736.900,271253.300,510158.300,515925.700,237395.100,221016.600,228485.500,238183.200,0.000
274040.800,270562.500,508622.700,514420.300,236799.300,220457.400,227913.200,237584.200,0.000
273373.600,269901.100,507150.800,512977.100,236223.200,219916.800,227359.300,237003.400,0.000
272738.600,269278.400,505752.200,511603.400,235666.600,219404.100,226831.000,236454.000,0.000
272136.400,268686.800,504414.000,510291.800,235135.600,218912.900,226329.000,235930.800,0.000
271569.200,268123.800,503141.900,509045.200,234643.200,218448.000,225855.400,235434.000,0.000
271026.400,267586.400,501923.800,507850.700,234174.300,218005.100,225399.400,234957.300,0.000
270502.700,267073.100,500757.800,506704.200,233716.200,217583.200,224961.200,234506.300,0.000
270003.100,266583.300,499645.200,505614.900,233277.900,217182.500,224547.500,234078.400,0.000
269531.300,266115.800,498586.000,504579.100,232872.400,216802.500,224155.600,233668.600,0.000
269081.900,265667.600,497565.000,503585.200,232488.300,216438.800,223776.200,233271.400,0.000
268648.800,265242.400,496588.600,502628.500,232104.000,216086.700,223410.600,232892.600,0.000
268238.700,264840.400,495662.500,501720.600,231737.500,215752.500,223064.500,232532.600,0.000
267855.500,264460.800,494778.700,500857.800,231400.600,215438.300,222742.100,232194.000,0.000
267490.700,264097.500,493934.500,500035.500,231087.500,215141.000,222436.600,231870.400,0.000
267135.600,263749.500,493121.900,499239.900,230774.500,214853.800,222140.900,231563.900,0.000
266798.700,263421.900,492348.000,498486.800,230472.000,214579.100,221861.700,231277.400,0.000
266478.300,263105.300,491606.900,497768.800,230191.300,214319.000,221597.900,231006.700,0.000
266185.100,262811.900,490908.200,497086.400,229940.100,214082.700,221355.400,230749.000,0.000
265897.000,262529.200,490236.700,496426.400,229691.400,213853.000,221115.900,230499.700,0.000
265612.800,262250.900,489586.000,495787.700,229439.600,213626.200,220881.800,230256.900,0.000
265348.700,261987.100,488967.800,495186.900,229209.300,213410.700,220665.800,230031.200,0.000
265105.500,261743.200,488380.600,494621.300,229005.400,213215.400,220468.700,229820.000,0.000
264871.800,261512.500,487816.200,494075.800,228808.100,213029.600,220275.300,229619.000,0.000
264635.100,261283.800,487266.300,493545.200,228599.300,212839.500,220077.200,229419.100,0.000
264410.700,261064.300,486741.100,493038.900,228405.800,212663.600,219893.700,229228.900,0.000
264200.400,260853.200,486239.000,492555.200,228228.000,212493.500,219717.900,229043.100,0.000
264005.200,260659.100,485761.500,492087.400,228057.600,212332.500,219552.800,228869.600,0.000
263811.900,260470.800,485299.200,491637.600,227881.300,212176.700,219391.000,228705.800,0.000
263628.300,260290.700,484859.300,491212.000,227719.400,212034.500,219242.100,228548.900,0.000
263464.400,260125.500,484445.300,490812.900,227580.000,211899.000,219105.500,228401.500,0.000
263308.800,259969.800,484048.700,490427.300,227448.200,211770.600,218975.000,228263.600,0.000
263146.500,259813.300,483655.900,490044.500,227303.500,211637.000,218832.800,228121.500,0.000
262994.600,259668.500,483282.200,489687.500,227165.000,211512.300,218705.800,227989.900,0.000
262860.000,259534.300,482931.900,489355.200,227048.000,211402.000,218596.800,227873.000,0.000
262733.600,259407.200,482596.400,489035.400,226944.300,211299.800,218493.800,227762.000,0.000
262600.200,259279.300,482266.700,488715.500,226825.800,211192.700,218381.300,227648.700,0.000
262478.400,259163.700,481958.500,488417.900,226712.700,211091.300,218276.200,227544.800,0.000
262372.700,259055.200,481660.400,488141.100,226617.900,211002.400,218184.900,227449.800,0.000
262279.300,258957.400,481384.500,487875.800,226541.700,210924.500,218105.100,227364.600,0.000
262173.700,258856.300,481112.600,487609.400,226452.500,210840.000,218015.400,227274.700,0.000
262072.500,258759.900,480843.800,487351.700,226355.900,210755.700,217930.600,227185.900,0.000
261981.300,258669.900,480589.700,487112.800,226275.800,210683.200,217858.900,227110.100,0.000
261902.800,258586.800,480350.800,486889.000,226215.100,210621.900,217797.500,227042.400,0.000
261816.600,258500.500,480117.200,486667.300,226148.300,210559.500,217733.600,226976.000,0.000
261723.100,258415.100,479882.500,486444.200,226063.600,210490.800,217661.700,226905.000,0.000
261647.600,258342.200,479663.500,486242.000,225995.200,210432.200,217599.300,226840.600,0.000
261586.000,258276.800,479464.400,486057.000,225950.200,210386.300,217549.700,226788.200,0.000
261519.300,258208.200,479268.200,485866.700,225896.400,210335.000,217494.600,226731.400,0.000
261448.500,258144.300,479075.500,485678.700,225831.400,210279.700,217435.700,226670.800,0.000
261384.900,258083.900,478885.200,485501.700,225773.500,210226.900,217382.300,226614.000,0.000
261337.000,258030.300,478708.900,485338.300,225730.800,210180.400,217333.500,226562.200,0.000
261285.300,257976.800,478539.800,485177.200,225693.300,210138.400,217289.900,226515.100,0.000
261222.100,257918.800,478369.500,485008.500,225636.000,210090.200,217239.200,226462.700,0.000
261168.600,257867.500,478207.000,484853.000,225584.100,210048.100,217194.500,226416.700,0.000
261128.500,257824.500,478055.500,484713.100,225549.600,210011.000,217158.600,226375.900,0.000
261088.300,257781.900,477908.500,484572.400,225516.300,209971.700,217116.700,226332.600,0.000
261037.400,257736.900,477758.000,484433.000,225468.200,209929.700,217070.500,226290.700,0.000
260985.600,257691.000,477605.300,484297.200,225419.600,209889.900,217029.200,226250.300,0.000
260946.900,257651.900,477470.300,484176.800,225387.700,209862.600,217001.900,226221.500,0.000
260919.100,257620.000,477347.500,484064.500,225369.500,209840.300,216979.700,226197.600,0.000
260877.900,257583.200,477218.600,483944.500,225332.600,209807.200,216949.400,226167.100,0.000
260841.700,257550.400,477098.100,483834.700,225297.400,209779.900,216922.300,226135.300,0.000
260815.400,257520.100,476985.200,483731.600,225273.500,209756.700,216903.200,226110.500,0.000
260797.800,257498.900,476878.000,483633.200,225260.100,209737.300,216884.600,226089.300,0.000
260768.300,257471.600,476763.300,483527.900,225231.000,209709.900,216853.100,226062.800,0.000
260737.000,257446.900,476657.900,483429.100,225201.700,209686.500,216826.900,226039.700,0.000
260720.400,257429.900,476564.300,483343.400,225189.700,209675.300,216814.400,226021.900,0.000
260702.400,257407.300,476469.300,483256.200,225182.200,209662.400,216802.400,226004.300,0.000
260674.000,257380.300,476369.200,483161.600,225157.000,209639.700,216778.400,225979.100,0.000
260646.900,257358.500,476273.100,483072.200,225126.000,209619.000,216757.500,225959.500,0.000
260631.000,257343.100,476186.400,482993.100,225109.100,209605.700,216747.400,225949.900,0.000
260617.400,257324.500,476101.400,482913.600,225101.400,209592.000,216734.600,225936.500,0.000
260597.300,257303.300,476015.800,482831.400,225085.900,209574.300,216715.100,225920.500,0.000
260574.200,257285.000,475926.900,482749.700,225055.600,209551.900,216693.800,225904.000,0.000
260553.600,257265.900,475834.000,482670.800,225030.600,209529.200,216675.100,225883.500,0.000
260546.300,257252.900,475758.700,482606.200,225025.500,209520.400,216672.700,225874.600,0.000
260530.700,257236.000,475682.600,482530.500,225020.700,209513.500,216667.000,225864.500,0.000
260506.600,257217.500,475594.100,482452.900,224996.600,209499.500,216650.000,225847.000,0.000
260491.800,257203.400,475521.600,482385.300,224977.500,209486.600,216636.600,225833.200,0.000
260483.400,257191.300,475449.700,482325.100,224972.900,209478.600,216626.800,225823.300,0.000
260476.200,257181.300,475383.400,482266.600,224973.400,209472.800,216619.300,225814.400,0.000
260456.200,257164.300,475307.400,482192.400,224949.800,209452.900,216592.900,225790.100,0.000
260439.500,257151.500,475235.500,482127.300,224930.100,209439.100,216578.700,225775.500,0.000
260424.700,257135.700,475165.800,482063.800,224922.300,209428.200,216566.000,225757.800,0.000
260415.200,257123.200,475100.800,482005.900,224924.500,209424.900,216561.700,225750.300,0.000
260399.800,257110.000,475033.000,481942.300,224911.000,209416.500,216549.200,225739.000,0.000
260387.600,257101.000,474968.500,481887.900,224898.900,209410.900,216538.200,225732.500,0.000
260374.900,257088.300,474905.100,481833.400,224891.000,209401.800,216525.600,225723.500,0.000
260374.200,257084.200,474854.100,481789.800,224897.500,209400.000,216526.400,225722.000,0.000
260365.900,257077.000,474793.600,481731.300,224885.000,209386.700,216512.300,225705.900,0.000
260350.000,257066.900,474731.900,481674.300,224865.400,209372.200,216498.000,225691.200,0.000
260342.600,257061.700,474672.500,481628.100,224855.200,209363.100,216494.500,225686.200,0.000
260338.000,257051.300,474619.600,481580.500,224854.100,209354.100,216490.300,225680.000,0.000
260329.300,257042.600,474564.500,481526.500,224849.200,209347.600,216485.200,225675.500,0.000
260318.200,257035.500,474501.500,481471.700,224831.200,209338.500,216476.300,225670.500,0.000
260305.300,257025.000,474443.300,481422.300,224817.300,209330.800,216469.200,225662.400,0.000
260297.300,257014.900,474395.200,481379.400,224818.100,209328.100,216472.000,225662.400,0.000
260290.200,257004.700,474342.300,481331.500,224815.800,209324.000,216468.500,225655.700,0.000
260278.800,256996.800,474286.800,481278.700,224798.400,209314.300,216456.400,225647.000,0.000
260276.100,256994.400,474237.600,481239.300,224791.700,209312.300,216454.900,225646.700,0.000
260281.200,256995.300,474196.200,481202.700,224798.700,209313.500,216458.400,225646.500,0.000
260278.600,256992.800,474151.400,481162.900,224798.800,209308.200,216454.000,225638.300,0.000
260271.100,256990.400,474100.700,481118.000,224786.400,209300.800,216445.100,225632.000,0.000
260266.900,256986.900,474056.200,481077.600,224777.300,209294.500,216440.300,225631.300,0.000
260266.000,256981.100,474016.300,481041.800,224777.300,209289.000,216435.400,225627.800,0.000
260266.300,256976.000,473971.100,481004.500,224784.000,209288.300,216431.900,225621.500,0.000
260252.800,256965.000,473925.200,480961.300,224774.200,209279.900,216422.500,225614.100,0.000
260240.100,256955.500,473878.400,480915.500,224761.300,209270.200,216411.300,225603.400,0.000
260236.900,256951.500,473836.800,480873.600,224758.800,209265.500,216406.200,225596.400,0.000
260241.700,256951.700,473799.600,480839.600,224767.800,209268.000,216410.800,225594.300,0.000
260234.000,256944.900,473752.200,480796.300,224758.100,209262.000,216403.200,225588.000,0.000
260221.300,256936.600,473705.800,480752.600,224741.800,209254.300,216393.300,225580.600,0.000
260219.600,256936.200,473670.100,480720.100,224743.300,209255.200,216397.900,225580.900,0.000
260223.100,256935.000,473636.400,480692.700,224757.100,209261.800,216402.600,225581.300,0.000
260213.200,256927.900,473596.200,480653.600,224754.300,209260.300,216396.100,225573.400,0.000
260201.500,256920.000,473551.300,480614.300,224736.800,209250.700,216385.700,225564.100,0.000
260203.800,256922.500,473521.800,480593.200,224739.300,209257.200,216393.200,225572.200,0.000
260213.400,256926.100,473494.700,480570.100,224752.800,209265.000,216401.100,225578.000,0.000
260209.600,256923.500,473454.400,480532.700,224748.700,209258.600,216393.000,225568.900,0.000
260204.200,256922.200,473411.700,480495.400,224732.500,209250.700,216382.200,225560.900,0.000
260201.400,256921.900,473367.800,480464.100,224723.800,209245.300,216379.500,225558.500,0.000
260205.700,256922.100,473336.100,480438.500,224728.700,209246.000,216382.600,225560.700,0.000
260203.800,256917.200,473302.500,480405.300,224729.300,209241.700,216381.100,225557.600,0.000
260194.700,256912.400,473264.500,480365.800,224714.700,209233.000,216375.000,225556.000,0.000
260187.100,256906.400,473227.400,480335.900,224704.200,209229.400,216373.800,225557.400,0.000
260190.000,256907.200,473197.600,480313.900,224708.500,209229.700,216378.000,225561.300,0.000
260191.800,256906.100,473167.000,480286.300,224714.000,209228.800,216380.600,225561.200,0.000
260179.900,256896.300,473124.100,480245.300,224699.800,209221.400,216372.000,225554.500,0.000
260173.100,256893.000,473086.000,480209.600,224690.300,209216.700,216366.100,225547.200,0.000
260176.400,256895.100,473052.800,480182.600,224692.600,209215.700,216363.900,225543.200,0.000
260177.100,256891.700,473024.600,480156.100,224702.100,209219.200,216367.800,225542.500,0.000
260163.900,256883.300,472984.500,480119.900,224688.600,209211.900,216356.400,225532.800,0.000
260163.200,256885.800,472953.700,480095.400,224678.700,209210.800,216352.700,225533.000,0.000
260170.200,256889.600,472932.100,480079.400,224683.700,209215.000,216359.600,225539.300,0.000
260172.300,256884.900,472905.900,480046.100,224691.200,209212.900,216357.100,225531.300,0.000
260169.200,256881.400,472870.000,480012.900,224690.000,209212.300,216348.600,225524.300,0.000
260158.900,256874.900,472837.100,479980.100,224680.900,209210.200,216339.000,225519.300,0.000
260161.300,256875.100,472813.300,479958.500,224683.400,209212.400,216339.200,225520.600,0.000
260168.200,256876.300,472788.400,479940.300,224697.800,209218.700,216347.300,225524.300,0.000
260164.800,256874.000,472755.900,479911.800,224696.400,209217.500,216347.100,225524.500,0.000
260159.400,256872.900,472727.300,479883.400,224688.200,209216.200,216345.100,225524.700,0.000
260156.500,256869.900,472699.700,479859.200,224688.100,209216.900,216346.700,225526.600,0.000
260159.000,256869.000,472675.000,479839.000,224696.400,209222.100,216352.300,225531.700,0.000
260160.800,256870.500,472649.600,479816.900,224701.000,209229.100,216356.500,225536.100,0.000
260156.100,256870.500,472616.000,479787.300,224690.600,209225.600,216350.700,225533.000,0.000
260157.200,256872.300,472589.800,479767.200,224688.000,209226.100,216355.800,225537.300,0.000
260160.800,256871.500,472563.700,479743.800,224694.800,209229.900,216358.900,225535.600,0.000
260161.200,256871.400,472536.400,479719.800,224698.900,209230.100,216360.900,225537.700,0.000
260154.600,256869.300,472501.300,479689.200,224683.100,209220.900,216355.000,225534.800,0.000
260150.700,256867.900,472471.300,479664.300,224672.000,209215.600,216350.500,225533.800,0.000
260158.600,256870.300,472448.800,479645.900,224679.100,209216.400,216353.500,225536.800,0.000
260167.100,256875.900,472428.600,479629.800,224686.900,209217.600,216356.500,225539.700,0.000
260157.800,256871.400,472394.700,479598.300,224672.900,209208.700,216342.300,225528.800,0.000
260149.400,256866.200,472363.800,479565.400,224659.900,209201.800,216331.500,225518.900,0.000
260152.300,256867.900,472345.800,479546.600,224667.200,209204.300,216335.800,225521.800,0.000
260157.300,256869.300,472327.400,479529.400,224681.400,209207.800,216338.800,225522.200,0.000
260152.300,256867.400,472301.900,479508.000,224677.200,209205.700,216334.400,225524.100,0.000
260145.200,256863.800,472274.500,479482.300,224666.900,209201.500,216327.300,225523.700,0.000
260146.400,256864.100,472253.200,479465.800,224673.000,209202.800,216326.300,225527.100,0.000
260154.900,256867.800,472231.500,479447.700,224682.800,209204.700,216329.400,225528.200,0.000
260156.000,256868.900,472201.700,479424.000,224678.000,209204.300,216328.300,225529.400,0.000
260152.100,256869.300,472170.400,479399.900,224670.200,209202.300,216325.300,225528.800,0.000
260150.700,256869.500,472145.500,479379.700,224669.100,209201.300,216327.300,225529.500,0.000
260155.900,256868.400,472124.600,479361.200,224680.900,209204.200,216331.900,225531.300,0.000
260153.100,256864.400,472098.900,479335.400,224680.500,209202.100,216328.300,225526.800,0.000
260146.500,256862.300,472071.700,479307.900,224668.900,209198.500,216322.700,225523.800,0.000
260146.100,256861.000,472049.100,479284.100,224664.800,209194.700,216315.300,225517.300,0.000
260150.500,256862.900,472030.800,479270.300,224673.400,209195.500,216315.300,225516.000,0.000
260150.800,256862.300,472012.600,479251.400,224680.600,209198.400,216314.200,225515.400,0.000
260142.800,256857.900,471989.100,479222.100,224673.800,209197.700,216311.400,225512.000,0.000
260137.800,256856.500,471965.300,479199.300,224669.000,209196.600,216312.400,225509.700,0.000
260148.200,256862.200,471943.200,479187.400,224680.500,209204.200,216320.500,225516.400,0.000
260148.500,256859.100,471919.500,479167.500,224688.100,209207.500,216324.800,225519.500,0.000
260135.300,256850.900,471887.600,479142.400,224676.400,209202.700,216322.500,225520.400,0.000
260128.500,256847.300,471861.300,479120.800,224667.200,209201.300,216324.800,225522.600,0.000
260130.800,256846.000,471842.300,479102.300,224674.200,209205.900,216331.500,225526.300,0.000
260132.200,256844.000,471822.600,479083.500,224681.000,209208.800,216336.400,225530.500,0.000
260129.100,256845.800,471800.300,479061.200,224670.600,209205.700,216334.600,225531.900,0.000
260125.500,256846.500,471775.700,479039.700,224662.700,209202.600,216333.900,225532.200,0.000
260134.000,256852.300,471760.200,479029.400,224669.400,209205.300,216340.600,225535.200,0.000
260140.200,256854.700,471742.200,479016.100,224677.300,209204.400,216341.700,225533.800,0.000
260134.400,256853.500,471715.600,478990.300,224666.300,209197.500,216331.500,225525.400,0.000
260128.200,256853.200,471686.900,478967.700,224651.800,209189.900,216323.900,225519.700,0.000
260128.600,256852.700,471662.600,478950.200,224649.700,209185.400,216321.400,225517.100,0.000
260136.200,256852.900,471646.900,478935.700,224662.100,209188.700,216325.600,225519.100,0.000
260130.600,256847.000,471618.200,478908.800,224658.400,209184.000,216316.300,225509.800,0.000
260124.900,256845.100,471598.400,478885.400,224648.600,209180.400,216309.000,225502.400,0.000
260127.000,256846.700,471585.900,478872.400,224650.200,209184.700,216315.800,225507.200,0.000
260139.200,256854.100,471571.400,478864.200,224665.300,209193.800,216325.900,225517.000,0.000
260136.100,256853.000,471550.600,478840.600,224666.000,209195.200,216324.600,225517.400,0.000
260126.500,256849.800,471523.600,478815.100,224654.400,209190.100,216313.800,225510.700,0.000
260124.300,256849.600,471503.300,478798.600,224654.600,209192.900,216317.400,225513.900,0.000
260130.300,256851.300,471485.300,478782.800,224667.100,209198.000,216322.900,225516.400,0.000
260130.600,256850.600,471467.700,478763.000,224673.700,209201.900,216326.200,225513.500,0.000
260123.400,256848.300,471445.800,478739.700,224666.200,209199.500,216320.700,225508.500,0.000
260119.000,256848.300,471424.700,478721.500,224662.100,209199.600,216320.000,225511.100,0.000
260121.100,256846.900,471405.800,478709.200,224671.300,209206.200,216327.400,225517.800,0.000
260125.100,256844.700,471386.200,478693.900,224677.700,209206.700,216329.800,225519.100,0.000
260113.200,256834.500,471355.700,478664.700,224657.800,209190.800,216318.900,225510.600,0.000
260104.300,256828.500,471324.500,478644.200,224644.500,209180.700,216314.000,225508.300,0.000
260109.600,256831.500,471308.900,478633.800,224653.500,209186.600,216325.400,225515.800,0.000
260112.700,256831.000,471290.600,478616.400,224659.500,209187.600,216330.100,225514.500,0.000
260105.100,256825.800,471265.400,478592.100,224649.000,209182.700,216325.500,225511.400,0.000
260101.800,256827.500,471244.100,478572.400,224641.200,209182.700,216324.600,225511.700,0.000
260108.100,256829.600,471229.400,478557.100,224644.300,209184.600,216327.700,225510.300,0.000
260111.200,256824.800,471207.900,478536.400,224650.100,209183.400,216326.600,225506.000,0.000
260103.800,256819.600,471182.500,478509.900,224642.100,209176.400,216319.100,225499.300,0.000
260098.700,256820.000,471160.400,478490.200,224633.400,209173.500,216317.200,225499.900,0.000
260095.800,256817.200,471140.000,478472.300,224630.500,209169.800,216315.500,225498.200,0.000
260099.900,256817.200,471125.800,478458.300,224638.300,209170.000,216315.100,225496.100,0.000
260099.300,256816.000,471105.400,478439.500,224635.900,209169.700,216308.700,225492.100,0.000
260092.800,256814.300,471079.800,478416.700,224624.400,209165.800,216299.500,225485.600,0.000
260094.700,256817.900,471065.400,478403.400,224626.400,209170.200,216301.000,225488.700,0.000
260101.500,256820.300,471055.200,478390.900,224638.000,209173.700,216304.800,225486.800,0.000
260107.100,256825.000,471044.300,478375.100,224642.300,209178.200,216305.100,225486.800,0.000
260103.500,256825.400,471023.200,478352.000,224631.700,209175.200,216292.400,225480.100,0.000
260105.700,256829.200,471005.800,478335.200,224631.100,209175.000,216286.800,225473.800,0.000
260118.300,256838.600,470999.500,478329.300,224650.400,209184.900,216297.400,225481.200,0.000
260128.600,256844.300,470988.700,478320.500,224662.200,209192.300,216304.700,225488.300,0.000
260120.000,256840.600,470965.000,478302.200,224650.300,209189.600,216301.100,225488.300,0.000
260112.100,256835.800,470944.400,478288.600,224642.100,209189.200,216304.100,225493.000,0.000
260112.900,256835.200,470928.600,478281.100,224654.700,209196.800,216317.000,225504.800,0.000
260112.000,256832.400,470904.400,478267.500,224661.100,209199.600,216323.700,225510.700,0.000
260102.600,256826.900,470881.700,478244.700,224649.300,209195.300,216319.700,225509.400,0.000
260101.600,256830.300,470867.500,478232.200,224645.500,209197.900,216326.300,225516.900,0.000
260103.200,256829.100,470851.700,478218.500,224649.700,209197.900,216331.900,225519.600,0.000
260107.800,256829.400,470827.300,478202.900,224656.600,209198.400,216335.300,225518.900,0.000
260101.000,256824.800,470804.200,478177.100,224645.900,209193.500,216328.200,225513.900,0.000
260098.800,256823.900,470786.800,478158.400,224639.300,209190.600,216326.400,225512.800,0.000
260105.800,256827.900,470779.500,478151.000,224651.000,209198.400,216334.400,225517.800,0.000
260113.400,256832.000,470771.500,478141.600,224665.300,209202.600,216342.200,225520.100,0.000
260106.300,256829.100,470751.900,478117.100,224657.300,209196.700,216333.100,225510.600,0.000
260102.700,256827.700,470730.400,478096.100,224645.000,209189.100,216322.400,225503.500,0.000
260108.100,256832.100,470715.700,478087.800,224648.500,209189.300,216323.000,225505.700,0.000
260109.100,256829.300,470698.600,478075.600,224653.900,209185.400,216323.100,225502.600,0.000
260107.800,256828.200,470679.800,478056.000,224648.700,209182.700,216318.900,225495.400,0.000
260100.800,256826.400,470655.700,478034.900,224635.400,209177.100,216310.200,225491.100,0.000
260102.300,256830.300,470640.200,478022.800,224632.500,209177.800,216309.200,225493.100,0.000
260116.100,256837.100,470635.900,478016.600,224643.900,209185.300,216318.500,225497.700,0.000
260117.300,256835.800,470617.900,477998.900,224643.200,209183.400,216315.000,225494.800,0.000
260112.300,256837.300,470595.100,477979.900,224633.300,209178.000,216305.500,225489.200,0.000
260113.200,256840.600,470579.200,477968.200,224631.600,209178.000,216302.600,225484.000,0.000
260123.400,256846.200,470573.900,477959.100,224646.800,209183.400,216304.800,225485.600,0.000
260127.500,256847.100,470562.500,477944.200,224657.400,209188.500,216304.600,225483.800,0.000
260120.500,256843.300,470544.100,477925.900,224649.000,209187.300,216300.000,225479.300,0.000
260115.800,256840.300,470523.700,477910.100,224641.200,209184.500,216297.500,225477.600,0.000
260122.800,256844.900,470510.400,477901.300,224648.800,209190.000,216304.300,225483.400,0.000
260127.300,256845.000,470496.300,477888.000,224654.600,209189.800,216303.800,225483.600,0.000
260123.400,256844.300,470475.100,477869.100,224648.200,209188.300,216300.600,225484.800,0.000
260118.600,256843.000,470453.700,477854.800,224642.300,209189.200,216303.100,225493.300,0.000
260118.300,256841.000,470437.300,477842.700,224644.100,209189.500,216310.200,225500.000,0.000
260117.500,256837.200,470418.500,477826.400,224648.700,209187.000,216313.400,225501.200,0.000
260112.500,256835.500,470401.400,477806.100,224641.400,209184.000,216312.200,225503.100,0.000
260108.300,256835.800,470385.600,477789.500,224631.700,209182.200,216312.100,225504.600,0.000
260104.700,256831.100,470361.500,477775.400,224627.900,209179.600,216313.400,225501.800,0.000
260110.600,256831.800,470348.300,477764.300,224638.400,209182.500,216318.200,225502.500,0.000
260107.400,256830.000,470328.800,477744.000,224631.800,209174.700,216306.500,225492.300,0.000
260099.400,256825.000,470308.300,477721.100,224618.300,209166.700,216293.200,225482.400,0.000
260104.200,256830.000,470297.900,477712.900,224623.100,209170.000,216296.900,225484.000,0.000
260113.200,256831.900,470291.300,477706.400,224638.300,209176.600,216303.900,225484.000,0.000
260104.200,256825.000,470271.100,477686.600,224634.300,209169.400,216295.000,225475.700,0.000
260098.200,256824.200,470252.600,477669.000,224625.400,209165.900,216289.200,225474.300,0.000
260096.700,256820.900,470236.800,477656.400,224622.500,209164.800,216290.700,225475.600,0.000
260101.300,256821.600,470224.200,477649.100,224635.200,209170.900,216296.000,225477.700,0.000
260100.500,256823.200,470211.300,477633.600,224636.500,209172.400,216294.600,225477.000,0.000
260097.700,256822.300,470193.500,477614.700,224625.900,209167.700,216286.900,225471.500,0.000
260098.400,256823.500,470177.900,477604.800,224623.900,209168.400,216287.000,225472.400,0.000
260106.500,256826.800,470172.400,477600.400,224635.900,209176.200,216293.300,225479.000,0.000
260109.500,256828.200,470167.100,477587.800,224648.200,209182.600,216296.000,225481.500,0.000
260106.100,256828.200,470147.600,477569.500,224640.900,209181.500,216290.100,225478.700,0.000
260102.000,256826.700,470127.400,477555.500,224635.800,209179.200,216287.000,225478.100,0.000
260110.800,256832.600,470118.700,477549.600,224645.800,209184.700,216296.400,225483.300,0.000
260117.300,256837.900,470106.800,477543.300,224658.800,209190.100,216307.500,225492.000,0.000
260109.500,256832.700,470082.100,477521.900,224648.300,209183.300,216300.300,225490.200,0.000
260104.700,256829.400,470063.100,477506.400,224640.300,209181.800,216300.800,225494.700,0.000
260105.900,256828.500,470051.500,477497.400,224644.500,209184.900,216306.900,225500.000,0.000
260108.700,256829.000,470041.200,477488.100,224653.000,209186.800,216311.800,225504.600,0.000
260101.300,256822.500,470020.800,477467.100,224639.900,209181.100,216304.800,225504.400,0.000
260093.000,256817.400,469997.700,477443.900,224623.500,209172.300,216296.000,225500.000,0.000
260094.600,256818.300,469981.700,477431.100,224623.300,209170.000,216296.600,225498.600,0.000
260099.900,256819.400,469972.300,477422.800,224634.500,209174.900,216304.400,225500.700,0.000
260098.700,256820.700,469960.700,477407.200,224629.000,209173.300,216304.700,225500.100,0.000
260092.300,256818.300,469942.400,477391.400,224618.600,209170.100,216306.400,225501.300,0.000
260089.500,256816.000,469917.700,477373.200,224615.000,209165.700,216301.300,225493.900,0.000
260099.800,256822.000,469907.800,477363.500,224628.700,209169.200,216300.300,225492.900,0.000
260098.000,256820.100,469893.100,477349.700,224631.500,209169.200,216297.000,225493.500,0.000
260092.100,256817.700,469873.300,477331.400,224619.900,209161.900,216285.400,225487.700,0.000
260089.700,256816.000,469857.900,477320.000,224619.000,209161.300,216285.100,225483.800,0.000
260094.800,256817.800,469847.200,477314.200,224631.800,209167.500,216296.800,225486.200,0.000
260094.000,256817.600,469829.300,477297.300,224633.100,209166.500,216294.800,225480.800,0.000
260083.800,256810.400,469803.800,477271.900,224615.100,209157.300,216281.600,225467.500,0.000
260082.800,256810.600,469787.000,477259.900,224612.000,209158.300,216280.500,225466.900,0.000
260086.300,256811.100,469773.900,477250.500,224623.600,209163.000,216283.000,225468.900,0.000
260088.100,256809.500,469761.600,477234.600,224631.000,209164.300,216277.800,225467.600,0.000
260084.100,256809.500,469744.600,477216.800,224620.400,209159.600,216263.200,225460.800,0.000
260084.200,256812.300,469727.200,477206.500,224616.600,209161.600,216261.200,225462.400,0.000
260085.600,256811.200,469715.300,477193.400,224622.900,209164.100,216268.600,225466.300,0.000
260092.500,256815.400,469705.100,477186.900,224634.900,209169.600,216280.700,225471.700,0.000
260089.700,256814.800,469685.100,477171.100,224633.900,209171.000,216285.000,225475.300,0.000
260080.700,256808.000,469661.000,477152.200,224623.500,209164.400,216282.100,225472.300,0.000
260081.700,256805.000,469642.900,477143.800,224628.800,209168.200,216286.800,225475.400,0.000
260089.500,256809.800,469632.400,477140.500,224642.900,209175.200,216293.600,225480.600,0.000
260082.600,256805.000,469609.100,477119.400,224630.200,209165.500,216283.400,225474.300,0.000
260074.500,256799.300,469585.000,477100.500,224612.100,209154.300,216274.900,225471.400,0.000
260072.900,256798.200,469567.400,477089.800,224611.600,209151.200,216276.500,225473.500,0.000
260082.200,256802.700,469554.500,477079.100,224622.900,209151.400,216283.600,225473.000,0.000
260080.900,256803.000,469536.900,477064.600,224621.500,209152.700,216286.900,225475.000,0.000
260075.900,256801.500,469517.900,477051.300,224613.700,209151.900,216285.700,225476.500,0.000
260075.500,256799.400,469501.200,477040.700,224615.100,209154.300,216287.900,225479.800,0.000
260079.400,256799.900,469489.000,477035.400,224630.700,209160.800,216294.800,225483.300,0.000
260077.400,256799.700,469473.500,477021.500,224635.300,209160.400,216292.900,225478.200,0.000
260074.500,256801.300,469459.100,477005.800,224625.500,209156.700,216287.300,225477.200,0.000
260077.400,256804.900,469451.400,477001.400,224626.500,209163.000,216295.300,225485.300,0.000
260082.300,256805.900,469434.900,476993.300,224633.500,209163.400,216297.900,225481.400,0.000
260081.300,256802.900,469414.900,476981.300,224635.400,209161.200,216299.100,225478.200,0.000
260073.800,256800.000,469395.500,476964.800,224627.000,209160.200,216297.300,225476.500,0.000
260068.200,256799.100,469379.300,476950.500,224621.100,209157.700,216294.500,225476.400,0.000
260078.400,256807.200,469372.200,476947.900,224634.000,209165.700,216301.800,225483.700,0.000
260083.300,256810.200,469360.600,476937.700,224642.900,209171.600,216305.700,225487.900,0.000
260075.000,256804.700,469340.400,476917.300,224632.300,209165.300,216295.500,225480.500,0.000
260074.200,256805.400,469324.400,476906.100,224627.900,209165.500,216292.800,225478.100,0.000
260081.300,256809.100,469312.800,476899.500,224635.000,209168.600,216295.000,225477.800,0.000
260090.800,256813.300,469305.800,476894.400,224650.200,209175.400,216301.100,225481.500,0.000
260081.300,256806.800,469285.900,476873.700,224639.700,209170.000,216291.900,225473.000,0.000
260076.600,256803.800,469267.200,476861.500,224628.300,209168.400,216286.600,225472.800,0.000
260083.400,256806.600,469258.300,476856.500,224634.900,209173.400,216293.200,225479.800,0.000
260085.500,256806.500,469246.000,476848.100,224642.500,209173.900,216295.100,225481.700,0.000
260078.400,256805.400,469222.900,476832.600,224634.400,209168.300,216291.000,225480.400,0.000
260074.500,256805.500,469205.300,476818.300,224625.000,209164.200,216289.400,225481.300,0.000
260076.400,256804.400,469192.100,476807.600,224625.100,209163.300,216295.700,225484.400,0.000
260079.400,256801.400,469184.100,476796.100,224637.200,209165.700,216302.600,225489.000,0.000
260077.600,256801.800,469169.500,476777.800,224637.400,209164.900,216301.100,225489.100,0.000
260076.200,256805.100,469149.900,476764.700,224627.800,209162.800,216297.300,225490.600,0.000
260075.100,256806.300,469133.800,476751.700,224622.300,209158.600,216295.500,225487.800,0.000
260082.400,256809.300,469130.000,476746.900,224637.400,209164.900,216304.100,225490.400,0.000
260079.600,256805.800,469115.600,476734.500,224640.000,209167.100,216304.500,225489.100,0.000
260070.000,256800.500,469090.900,476716.000,224624.800,209156.900,216290.900,225477.500,0.000
260066.000,256795.500,469070.600,476705.900,224619.200,209154.800,216287.800,225476.200,0.000
260074.700,256801.400,469062.300,476702.300,224630.900,209162.700,216297.000,225483.000,0.000
260077.800,256804.400,469050.200,476693.100,224637.000,209164.400,216298.700,225487.000,0.000
260069.500,256799.700,469031.800,476672.300,224621.500,209157.300,216286.300,225480.200,0.000
260069.500,256800.100,469014.000,476657.600,224612.100,209154.500,216281.200,225475.500,0.000
260076.500,256803.800,468999.300,476648.800,224620.200,209160.400,216288.500,225477.600,0.000
260082.400,256809.600,468991.800,476641.300,224633.100,209167.400,216295.800,225481.800,0.000
260076.000,256807.500,468975.200,476623.500,224626.600,209163.700,216289.100,225478.500,0.000
260070.100,256804.600,468956.500,476609.700,224618.800,209159.400,216277.200,225469.600,0.000
260079.900,256809.400,468952.100,476608.800,224631.500,209165.800,216282.000,225474.000,0.000
260082.600,256810.300,468945.800,476604.000,224647.000,209171.500,216290.100,225478.400,0.000
260068.600,256800.600,468924.800,476586.100,224636.700,209166.900,216284.800,225473.300,0.000
260067.800,256800.000,468910.600,476576.200,224631.600,209167.800,216287.300,225478.000,0.000
260070.000,256800.500,468900.100,476571.200,224639.800,209171.600,216298.600,225488.100,0.000
260075.800,256803.000,468891.300,476565.500,224653.600,209176.800,216306.700,225495.000,0.000
260074.400,256801.600,468874.000,476549.800,224647.700,209176.500,216303.100,225494.200,0.000
260062.800,256796.000,468849.800,476528.100,224630.900,209168.000,216295.300,225489.200,0.000
260067.600,256800.700,468839.800,476520.700,224630.800,209167.700,216299.100,225490.500,0.000
260075.200,256801.700,468830.600,476513.500,224640.900,209172.500,216306.200,225492.900,0.000
260072.300,256800.500,468814.200,476503.500,224637.200,209170.200,216306.700,225490.800,0.000
260062.100,256797.100,468793.800,476484.800,224622.600,209161.000,216296.900,225481.700,0.000
260058.900,256795.300,468778.800,476473.600,224619.500,209156.600,216290.200,225477.400,0.000
260063.000,256792.900,468765.500,476466.200,224628.300,209155.000,216286.800,225474.800,0.000
260066.500,256795.300,468753.300,476458.100,224632.300,209155.800,216285.000,225474.000,0.000
260056.900,256790.100,468736.500,476438.900,224619.000,209150.500,216280.000,225468.400,0.000
260048.400,256782.700,468719.300,476421.300,224614.300,209146.900,216279.900,225463.500,0.000
260057.100,256787.800,468713.200,476417.000,224627.400,209153.000,216289.700,225467.300,0.000
260061.100,256792.100,468705.300,476408.600,224635.000,209156.700,216292.800,225469.000,0.000
260057.300,256793.200,468692.800,476396.000,224627.500,209154.800,216290.700,225472.300,0.000
260051.200,256788.000,468676.000,476380.800,224620.000,209150.600,216284.800,225471.900,0.000
260055.500,256789.700,468664.200,476375.300,224627.800,209151.200,216285.000,225472.600,0.000
260063.400,256795.500,468659.600,476370.600,224639.400,209158.300,216292.200,225478.000,0.000
260059.800,256796.300,468647.500,476352.000,224628.600,209156.100,216287.000,225472.000,0.000
260061.300,256798.800,468637.800,476345.300,224624.800,209159.200,216289.200,225471.000,0.000
260068.000,256801.400,468631.600,476343.700,224638.700,209168.200,216296.900,225474.900,0.000
260078.200,256807.700,468630.400,476346.400,224656.900,209182.500,216309.000,225485.700,0.000
260073.600,256806.800,468614.400,476335.000,224650.400,209179.900,216303.900,225487.600,0.000
260066.500,256803.900,468597.600,476320.100,224639.000,209171.100,216295.800,225483.200,0.000
260071.600,256806.600,468588.900,476315.300,224645.100,209174.700,216304.600,225488.700,0.000
260081.100,256810.700,468584.700,476310.600,224659.300,209180.900,216318.700,225497.800,0.000
260072.400,256803.900,468563.800,476291.900,224652.900,209177.500,216314.700,225495.000,0.000
260065.900,256797.900,468541.900,476274.700,224639.900,209171.000,216309.200,225493.000,0.000
260062.800,256792.600,468526.200,476261.300,224635.800,209166.900,216310.600,225493.000,0.000
260065.400,256791.300,468515.800,476252.600,224643.500,209164.600,216312.000,225491.800,0.000
260060.900,256787.900,468501.600,476234.900,224639.800,209160.800,216304.800,225486.700,0.000
260055.300,256785.500,468485.400,476218.200,224626.800,209155.900,216296.000,225482.300,0.000
260056.800,256790.400,468475.100,476211.000,224624.700,209155.900,216296.500,225483.600,0.000
260068.900,256799.200,468470.900,476209.200,224639.900,209163.300,216306.300,225488.600,0.000
260073.700,256803.500,468462.500,476200.200,224645.600,209163.600,216306.000,225489.300,0.000
260067.400,256801.500,468440.400,476184.300,224633.500,209155.900,216298.300,225483.300,0.000
260067.900,256803.000,468429.400,476174.700,224629.000,209152.700,216297.300,225481.100,0.000
260076.100,256806.200,468424.000,476170.500,224639.600,209157.300,216300.800,225484.000,0.000
260077.600,256805.400,468417.100,476161.800,224649.000,209164.300,216302.500,225485.200,0.000
260066.900,256801.300,468402.100,476143.200,224637.200,209161.600,216294.600,225480.000,0.000
260061.500,256799.000,468388.700,476130.500,224627.800,209157.900,216291.000,225477.100,0.000
260069.900,256801.100,468378.700,476125.600,224636.700,209161.300,216296.700,225478.000,0.000
260081.600,256808.100,468378.800,476127.000,224652.100,209171.100,216306.600,225484.300,0.000
260076.300,256808.100,468367.400,476116.800,224646.300,209172.500,216304.500,225481.800,0.000
260067.600,256802.300,468349.300,476101.200,224637.600,209168.900,216298.200,225476.800,0.000
260075.500,256808.500,468343.100,476101.900,224649.000,209176.000,216307.900,225486.700,0.000
260074.000,256802.900,468327.700,476089.900,224655.300,209175.200,216308.000,225486.400,0.000
260061.500,256795.500,468309.200,476071.900,224644.300,209169.300,216297.700,225479.400,0.000
260058.500,256796.000,468293.000,476060.200,224637.800,209169.300,216295.300,225481.000,0.000
260065.500,256802.300,468288.800,476055.000,224642.700,209171.500,216304.500,225487.500,0.000
260069.800,256801.400,468281.600,476047.600,224653.500,209171.800,216308.800,225486.000,0.000
260065.100,256798.400,468270.100,476035.700,224652.600,209172.000,216309.500,225487.800,0.000
260058.300,256794.600,468255.300,476019.800,224642.200,209169.500,216308.500,225490.100,0.000
260050.400,256786.300,468238.500,476005.800,224634.100,209165.000,216307.000,225487.800,0.000
260058.800,256789.100,468233.000,476001.800,224646.300,209170.800,216314.700,225492.300,0.000
260054.600,256785.200,468215.100,475984.700,224640.300,209164.500,216307.100,225487.800,0.000
260045.000,256780.700,468194.400,475966.800,224623.700,209156.700,216298.300,225482.100,0.000
260043.900,256779.100,468179.200,475955.200,224616.500,209153.400,216296.700,225479.800,0.000
260051.400,256780.300,468175.600,475948.800,224626.600,209158.600,216305.300,225481.600,0.000
260049.400,256776.800,468165.300,475935.400,224630.600,209158.800,216304.500,225479.800,0.000
260037.500,256770.400,468144.800,475912.500,224614.100,209149.200,216291.700,225471.300,0.000
260036.700,256771.000,468131.700,475899.900,224607.600,209144.900,216288.400,225471.400,0.000
260044.100,256773.700,468128.500,475894.400,224617.600,209148.400,216289.700,225469.400,0.000
260051.300,256780.100,468119.700,475891.900,224627.900,209151.400,216292.400,225470.800,0.000
260052.700,256786.200,468109.100,475876.900,224620.400,209149.000,216284.700,225466.600,0.000
260052.600,256787.500,468099.400,475865.800,224611.600,209144.300,216278.800,225462.700,0.000
260060.800,256792.800,468099.600,475866.700,224622.000,209149.400,216287.200,225466.100,0.000
260071.100,256801.700,468098.800,475868.100,224639.000,209160.300,216296.800,225472.200,0.000
260070.900,256803.800,468090.200,475858.700,224635.800,209162.400,216291.800,225469.000,0.000
260064.500,256802.000,468077.100,475847.600,224631.000,209160.600,216288.400,225465.700,0.000
260065.100,256802.000,468065.700,475839.900,224634.300,209159.500,216287.700,225464.100,0.000
260072.300,256805.500,468059.600,475834.800,224646.000,209163.200,216289.100,225465.000,0.000
260067.700,256802.500,468045.900,475819.900,224642.400,209164.000,216286.000,225465.800,0.000
260061.300,256799.900,468031.500,475805.000,224634.500,209164.400,216285.000,225469.100,0.000
260064.600,256802.900,468027.300,475802.500,224641.200,209170.700,216295.000,225474.400,0.000
260073.800,256804.700,468019.900,475800.600,224654.100,209178.000,216306.700,225482.000,0.000
260073.400,256805.800,468005.700,475787.900,224651.100,209180.100,216308.800,225484.800,0.000
260066.700,256804.500,467990.500,475775.100,224636.100,209172.400,216304.400,225486.600,0.000
260069.300,256806.700,467980.100,475765.800,224630.200,209167.400,216301.900,225485.700,0.000
260076.500,256808.400,467975.200,475761.100,224638.500,209169.300,216308.800,225489.800,0.000
260073.800,256807.300,467958.800,475750.000,224636.600,209166.800,216311.300,225491.900,0.000
260066.500,256805.000,467942.300,475735.300,224626.100,209161.000,216306.900,225491.700,0.000
260063.800,256801.100,467927.800,475722.800,224620.600,209157.900,216307.000,225488.500,0.000
260068.100,256802.300,467919.500,475713.900,224629.700,209159.500,216310.000,225486.900,0.000
260071.700,256804.000,467910.600,475705.900,224635.000,209159.700,216310.200,225487.000,0.000
260065.500,256802.100,467897.000,475691.000,224622.900,209154.700,216303.300,225484.600,0.000
260064.600,256804.200,467891.700,475684.800,224620.300,209157.800,216303.400,225487.800,0.000
260077.800,256813.900,467894.800,475689.500,224636.700,209166.400,216315.600,225495.900,0.000
260081.000,256814.800,467886.700,475683.500,224642.700,209164.200,216315.500,225493.300,0.000
260070.600,256810.600,467866.700,475666.500,224626.200,209154.000,216303.000,225483.800,0.000
260070.000,256812.500,467848.500,475653.000,224619.000,209151.400,216296.100,225480.100,0.000
260080.200,256819.700,467846.600,475651.200,224627.400,209155.800,216297.800,225481.200,0.000
260084.300,256819.700,467841.300,475646.400,224637.300,209160.700,216298.200,225480.000,0.000
260075.900,256815.600,467825.000,475629.400,224627.800,209156.500,216287.500,225472.300,0.000
260072.700,256815.100,467812.600,475615.200,224620.700,209155.900,216285.600,225471.800,0.000
260077.000,256816.100,467804.400,475608.400,224625.600,209157.200,216287.400,225471.700,0.000
260084.500,256818.500,467799.100,475602.900,224635.800,209160.600,216293.300,225474.500,0.000
260082.800,256818.800,467790.100,475582.800,224629.700,209159.000,216293.400,225473.300,0.000
260082.900,256820.000,467781.300,475571.800,224623.700,209159.200,216292.100,225474.100,0.000
260090.300,256826.400,467779.200,475575.600,224633.700,209169.900,216305.500,225486.100,0.000
260096.400,256827.300,467772.300,475572.900,224647.800,209176.200,216314.900,225491.900,0.000
260090.900,256824.700,467757.400,475561.500,224643.200,209171.200,216307.800,225489.000,0.000
260082.900,256821.000,467740.100,475545.400,224630.700,209166.800,216297.900,225485.900,0.000
260076.100,256815.800,467723.700,475533.100,224627.400,209164.100,216296.100,225482.900,0.000
260081.200,256815.800,467717.600,475528.000,224636.400,209164.900,216300.100,225483.300,0.000
260078.700,256811.600,467704.200,475511.900,224634.800,209159.000,216294.700,225481.200,0.000
260064.000,256801.700,467684.300,475484.100,224617.000,209144.700,216280.500,225472.100,0.000
260062.200,256801.500,467672.600,475473.300,224609.200,209140.200,216280.500,225472.800,0.000
260067.600,256802.000,467665.200,475466.900,224616.100,209140.600,216285.600,225472.300,0.000
260070.300,256803.100,467651.100,475456.800,224621.500,209141.600,216287.800,225471.300,0.000
260066.000,256801.800,467638.400,475443.400,224611.000,209139.300,216282.300,225468.400,0.000
260064.300,256803.100,467627.200,475435.100,224604.500,209137.000,216278.400,225467.700,0.000
260071.800,256809.400,467623.800,475433.500,224614.800,209140.900,216284.300,225470.800,0.000
260078.900,256813.300,467621.800,475431.400,224627.300,209145.600,216293.900,225477.300,0.000
260076.700,256813.900,467610.100,475421.000,224618.300,209140.200,216288.300,225475.000,0.000
260071.800,256810.500,467599.800,475411.200,224608.700,209138.400,216281.600,225470.900,0.000
260081.000,256816.500,467602.000,475412.100,224618.800,209145.700,216287.700,225473.000,0.000
260089.900,256821.500,467597.100,475411.200,224629.000,209148.200,216294.200,225476.500,0.000
260077.200,256812.900,467575.500,475390.300,224614.300,209137.900,216283.200,225468.700,0.000
260074.900,256812.800,467561.700,475377.400,224606.000,209134.400,216278.300,225463.400,0.000
260082.000,256816.500,467554.600,475369.100,224612.800,209138.700,216279.200,225462.800,0.000
260089.900,256820.600,467549.900,475363.200,224626.900,209145.900,216283.500,225466.400,0.000
260088.800,256824.300,467539.600,475352.300,224626.500,209149.200,216283.900,225469.000,0.000
260083.800,256823.300,467529.300,475340.500,224621.100,209150.500,216283.000,225471.300,0.000
260082.400,256819.100,467517.500,475327.700,224622.300,209149.400,216278.300,225464.500,0.000
260089.500,256819.700,467506.700,475321.900,224633.600,209152.800,216283.200,225465.600,0.000
260091.500,256822.500,467499.700,475311.800,224633.700,209155.200,216284.200,225470.100,0.000
260084.200,256821.800,467487.300,475299.400,224622.700,209152.800,216281.500,225470.700,0.000
260081.900,256823.000,467475.100,475291.900,224618.700,209151.900,216284.800,225474.600,0.000
260089.000,256825.400,467470.900,475289.700,224630.900,209157.300,216293.500,225481.400,0.000
260089.700,256826.200,467466.100,475281.200,224634.100,209159.000,216297.800,225485.100,0.000
260084.300,256825.900,467454.800,475267.500,224624.500,209155.800,216297.600,225487.200,0.000
260082.100,256824.100,467442.800,475257.700,224619.500,209152.400,216296.600,225488.200,0.000
260089.000,256827.500,467435.300,475252.500,224626.200,209151.600,216297.900,225487.300,0.000
260094.800,256831.500,467430.700,475248.500,224633.600,209154.400,216304.200,225491.900,0.000
260091.100,256829.900,467424.400,475238.200,224629.500,209156.300,216305.000,225495.000,0.000
260092.300,256831.400,467418.300,475234.200,224626.600,209158.500,216305.300,225496.400,0.000
260099.500,256836.400,467414.700,475231.900,224636.800,209165.700,216312.900,225499.700,0.000
260100.500,256834.600,467404.000,475225.300,224642.900,209165.100,216313.400,225497.600,0.000
260099.000,256837.700,467394.800,475217.700,224637.600,209164.400,216310.900,225495.200,0.000
260100.200,256840.200,467384.800,475208.400,224633.100,209163.000,216309.500,225491.400,0.000
260105.100,256842.500,467377.900,475201.700,224641.300,209166.000,216312.100,225491.400,0.000
260110.200,256844.100,467370.100,475193.000,224649.700,209168.500,216312.400,225489.400,0.000
260107.100,256844.000,467356.900,475180.600,224642.700,209169.500,216306.400,225489.600,0.000
260101.300,256841.600,467342.500,475167.500,224632.500,209166.400,216299.000,225487.200,0.000
260098.700,256838.000,467329.800,475158.400,224630.300,209162.500,216299.500,225486.400,0.000
260106.700,256839.800,467324.800,475154.400,224641.500,209168.300,216307.200,225488.800,0.000
260103.300,256837.000,467314.000,475142.600,224637.600,209169.600,216304.000,225484.000,0.000
260098.000,256836.000,467301.300,475130.700,224627.400,209168.000,216299.700,225484.000,0.000
260101.100,256840.400,467295.100,475123.800,224629.900,209169.000,216299.700,225485.700,0.000
260112.500,256845.600,467292.200,475120.300,224644.000,209174.700,216306.300,225487.900,0.000
260113.700,256845.700,467285.400,475110.200,224646.000,209175.100,216307.600,225488.700,0.000
260109.700,256846.500,467274.300,475099.800,224634.700,209170.400,216302.200,225485.900,0.000
260113.700,256850.900,467267.600,475093.600,224633.800,209172.900,216302.700,225487.500,0.000
260120.900,256853.600,467257.200,475093.500,224645.800,209178.100,216308.500,225492.100,0.000
260121.000,256854.500,467246.500,475085.700,224649.400,209179.600,216312.000,225494.800,0.000
260108.000,256844.300,467230.700,475065.900,224631.600,209170.600,216302.000,225489.700,0.000
260097.700,256836.500,467212.200,475050.100,224618.100,209162.700,216296.000,225484.300,0.000
260107.200,256841.800,467208.000,475050.800,224629.000,209164.900,216306.400,225492.900,0.000
260108.600,256840.500,467197.100,475041.100,224631.600,209162.800,216308.800,225492.500,0.000
260099.100,256835.600,467182.600,475022.700,224616.400,209153.700,216298.200,225483.000,0.000
260098.700,256838.200,467173.500,475013.400,224608.000,209148.800,216296.400,225482.400,0.000
260108.000,256842.000,467173.000,475011.500,224618.500,209152.600,216303.800,225487.100,0.000
260112.900,256843.100,467167.600,475005.200,224631.300,209157.300,216307.900,225487.400,0.000
260108.100,256841.800,467152.500,474990.300,224623.200,209151.900,216299.500,225481.600,0.000
260104.000,256840.000,467138.000,474974.200,224613.800,209146.100,216291.400,225477.800,0.000
260105.800,256841.000,467132.600,474965.900,224619.000,209148.400,216293.200,225478.800,0.000
260107.200,256840.900,467123.200,474958.200,224628.900,209149.700,216294.900,225476.400,0.000
260101.100,256840.000,467109.300,474943.900,224619.000,209143.700,216286.700,225467.700,0.000
260097.800,256838.300,467095.300,474931.600,224606.300,209137.500,216280.500,225463.700,0.000
260096.300,256832.400,467086.300,474923.700,224607.400,209136.900,216279.800,225460.600,0.000
260098.900,256830.900,467077.600,474919.500,224618.100,209138.900,216280.700,225460.200,0.000
260092.600,256826.700,467060.700,474903.400,224612.700,209135.900,216272.100,225455.600,0.000
260084.500,256821.000,467047.200,474890.900,224600.700,209130.200,216263.400,225451.100,0.000
260085.400,256821.400,467040.900,474887.100,224602.800,209134.500,216268.300,225456.300,0.000
260091.400,256823.600,467036.100,474883.900,224611.700,209139.200,216275.800,225459.300,0.000
260086.600,256820.900,467027.000,474873.800,224610.600,209134.400,216275.100,225457.600,0.000
260083.000,256821.600,467019.200,474865.000,224606.000,209135.800,216273.800,225460.300,0.000
260084.600,256822.800,467010.900,474861.400,224608.900,209139.700,216278.500,225465.300,0.000
260091.100,256825.100,467006.500,474860.300,224625.000,209147.600,216287.700,225475.300,0.000
260092.300,256825.700,467000.800,474852.900,224632.500,209153.200,216291.200,225480.500,0.000
260092.500,256830.300,466994.500,474846.600,224629.400,209159.900,216296.300,225489.300,0.000
260089.300,256826.300,466982.400,474836.500,224623.700,209161.700,216297.800,225490.000,0.000
260080.700,256815.600,466965.500,474825.600,224625.100,209157.600,216301.400,225488.000,0.000
260079.200,256812.700,466951.800,474816.200,224628.700,209157.300,216306.200,225489.100,0.000
260071.600,256808.900,466935.200,474795.900,224612.800,209149.800,216296.300,225480.600,0.000
260063.900,256803.000,466921.500,474779.900,224600.300,209142.200,216287.400,225470.600,0.000
260072.100,256804.100,466913.100,474775.100,224607.400,209144.000,216287.900,225469.100,0.000
260077.000,256806.500,466909.600,474768.000,224615.900,209147.000,216289.800,225468.200,0.000
260080.800,256813.400,466905.100,474755.900,224609.200,209146.500,216285.900,225468.800,0.000
260073.600,256810.200,466889.300,474737.100,224592.500,209135.500,216273.300,225459.700,0.000
260076.600,256811.500,466879.000,474731.100,224593.700,209133.300,216273.000,225455.700,0.000
260083.700,256814.300,466873.400,474728.200,224604.700,209133.900,216276.500,225455.300,0.000
260084.700,256817.600,466866.900,474721.800,224601.000,209131.800,216275.300,225458.900,0.000
260079.500,256817.400,466855.500,474710.800,224588.500,209126.800,216270.600,225455.500,0.000
260078.400,256816.300,466847.400,474705.800,224586.200,209126.000,216271.700,225454.400,0.000
260087.900,256819.600,466846.100,474706.400,224602.100,209134.500,216283.600,225462.000,0.000
260086.300,256819.700,466837.300,474696.000,224601.700,209134.600,216282.200,225462.100,0.000
260085.300,256822.100,466826.600,474687.400,224594.600,209132.000,216276.700,225461.900,0.000
260083.400,256819.900,466814.500,474682.500,224596.500,209131.600,216275.800,225460.500,0.000
260089.900,256821.800,466815.100,474680.900,224612.800,209139.800,216283.500,225465.100,0.000
260089.800,256823.700,466811.200,474672.200,224618.600,209144.900,216284.300,225465.500,0.000
260082.600,256819.400,466794.100,474656.200,224607.200,209140.400,216275.000,225458.300,0.000
260085.700,256822.800,466790.200,474652.200,224610.400,209143.900,216276.900,225458.800,0.000
260098.400,256830.700,466796.900,474655.900,224631.900,209156.500,216289.700,225465.600,0.000
260099.600,256829.700,466788.900,474644.800,224637.100,209158.600,216287.600,225466.200,0.000
260097.800,256830.200,466779.000,474633.400,224629.300,209158.800,216283.800,225468.200,0.000
260093.900,256826.700,466764.400,474621.200,224621.000,209155.300,216285.100,225467.700,0.000
260095.500,256825.900,466752.600,474613.800,224624.800,209155.300,216289.400,225471.900,0.000
260088.000,256818.000,466733.600,474600.900,224620.400,209149.000,216285.900,225469.400,0.000
260076.100,256808.400,466713.200,474582.400,224604.600,209140.600,216282.500,225468.500,0.000
260065.400,256797.900,466695.700,474567.400,224594.500,209135.200,216281.800,225465.300,0.000
260069.400,256798.700,466690.500,474564.300,224603.000,209139.900,216293.500,225470.800,0.000
260070.300,256795.800,466682.500,474553.700,224609.500,209139.700,216297.400,225470.200,0.000
260058.300,256786.600,466661.200,474531.100,224596.000,209129.900,216281.600,225458.800,0.000
260052.700,256785.600,466647.800,474520.800,224588.600,209127.600,216274.000,225454.400,0.000
260051.800,256783.100,466641.000,474515.200,224590.800,209126.900,216273.200,225454.400,0.000
260056.700,256783.300,466641.800,474512.400,224601.700,209133.300,216277.800,225459.500,0.000
260052.200,256779.100,466628.000,474499.500,224594.900,209131.900,216274.700,225456.500,0.000
260045.900,256776.800,466615.800,474486.800,224584.800,209125.900,216268.900,225452.000,0.000
260045.400,256776.200,466605.800,474479.000,224581.800,209120.800,216269.000,225451.100,0.000
260058.200,256785.700,466605.800,474483.900,224596.200,209125.000,216277.100,225455.700,0.000
260057.000,256785.600,466593.800,474472.400,224593.300,209122.000,216268.400,225452.000,0.000
260049.300,256783.500,466577.000,474458.600,224583.100,209116.100,216255.500,225446.800,0.000
260051.000,256787.700,466573.200,474456.800,224585.900,209119.300,216254.600,225447.900,0.000
260061.700,256791.300,466568.700,474453.700,224597.800,209125.400,216259.000,225449.000,0.000
260062.700,256791.300,466558.300,474443.300,224600.300,209126.600,216255.700,225444.100,0.000
260060.100,256794.700,466549.300,474429.800,224592.400,209125.500,216248.300,225437.200,0.000
260060.600,256796.100,466537.200,474419.400,224590.200,209122.800,216246.300,225429.800,0.000
260068.500,256799.100,466531.300,474414.000,224602.600,209125.300,216251.600,225431.900,0.000
260069.500,256801.300,466521.800,474405.200,224607.600,209127.000,216256.500,225436.900,0.000
260056.000,256790.300,466502.800,474385.100,224589.400,209117.600,216245.700,225431.100,0.000
260048.800,256783.600,466483.000,474370.800,224577.700,209112.700,216241.000,225431.100,0.000
260054.400,256786.100,466476.100,474369.800,224584.900,209116.800,216251.000,225441.000,0.000
260057.200,256784.800,466468.900,474366.000,224596.600,209123.500,216261.500,225451.800,0.000
260042.300,256774.300,466442.200,474343.800,224579.900,209112.400,216253.900,225445.000,0.000
260036.900,256772.500,466426.500,474332.100,224569.700,209108.500,216255.300,225441.200,0.000
260039.700,256772.900,466418.400,474327.600,224575.200,209108.400,216258.600,225441.300,0.000
260045.700,256775.200,466413.200,474324.700,224586.700,209112.100,216264.900,225446.500,0.000
260045.700,256777.300,466404.100,474315.200,224586.200,209115.700,216263.600,225448.300,0.000
260037.600,256771.800,466389.700,474303.700,224580.600,209113.800,216257.500,225445.800,0.000
260043.500,256774.300,466389.100,474300.500,224593.700,209122.300,216264.100,225450.800,0.000
260047.300,256773.500,466383.800,474295.300,224609.400,209128.600,216270.100,225453.900,0.000
260045.200,256771.900,466374.400,474285.200,224609.100,209132.300,216270.400,225454.500,0.000
260037.300,256768.200,466356.800,474271.800,224597.700,209128.800,216264.700,225449.000,0.000
260039.400,256770.500,466344.200,474268.200,224599.500,209130.200,216269.000,225448.800,0.000
260046.100,256772.500,466339.600,474266.400,224614.100,209132.900,216274.100,225450.800,0.000
260043.900,256769.200,466326.800,474253.200,224611.000,209127.000,216267.800,225447.400,0.000
260041.900,256769.000,466307.600,474238.800,224596.900,209118.800,216259.000,225442.200,0.000
260047.000,256774.400,466296.800,474236.600,224597.000,209119.800,216261.500,225442.500,0.000
260058.800,256783.100,466289.300,474235.600,224607.900,209122.100,216265.100,225443.300,0.000
260060.200,256785.800,466274.000,474222.800,224606.700,209118.400,216256.400,225436.800,0.000
260047.800,256779.600,466250.500,474200.200,224589.800,209111.000,216242.200,225422.000,0.000
260049.000,256781.100,466238.800,474191.400,224586.300,209110.700,216243.000,225421.400,0.000
260055.800,256784.000,466233.600,474190.800,224596.200,209116.700,216250.700,225428.100,0.000
260058.100,256786.900,466225.100,474188.500,224601.000,209119.000,216253.900,225431.800,0.000
260051.400,256784.500,466209.400,474177.600,224590.300,209114.900,216249.000,225431.500,0.000
260049.100,256783.600,466196.400,474172.000,224583.500,209112.600,216250.800,225435.300,0.000
260053.900,256783.600,466187.500,474168.700,224588.500,209117.200,216257.700,225443.100,0.000
260052.500,256781.700,466175.700,474162.100,224594.000,209118.800,216262.800,225447.400,0.000
260044.200,256778.300,466156.700,474148.500,224582.200,209112.900,216258.800,225448.600,0.000
260040.200,256776.000,466143.000,474140.100,224575.000,209113.800,216260.900,225453.700,0.000
260039.900,256773.100,466133.200,474136.000,224579.100,209115.100,216268.900,225459.000,0.000
260043.000,256770.800,466125.000,474128.700,224588.400,209117.400,216274.800,225459.300,0.000
260035.800,256766.200,466104.900,474112.500,224578.600,209113.000,216268.300,225453.000,0.000
260035.100,256769.100,466096.700,474108.100,224575.000,209115.400,216269.900,225455.700,0.000
260038.400,256770.500,466091.100,474101.500,224580.700,209121.000,216275.400,225460.100,0.000
260038.300,256767.000,466082.200,474091.500,224589.300,209124.500,216276.300,225458.700,0.000
260033.900,256765.600,466071.900,474080.000,224586.400,209125.200,216270.800,225455.700,0.000
260030.000,256765.200,466062.400,474069.100,224578.300,209122.800,216264.200,225453.200,0.000
260033.000,256766.900,466058.600,474066.300,224583.500,209124.400,216268.900,225457.500,0.000
260043.700,256772.500,466056.500,474065.200,224597.100,209130.400,216276.000,225459.500,0.000
260048.800,256777.200,466047.800,474056.700,224595.600,209130.500,216271.700,225453.700,0.000
260044.300,256778.100,466030.100,474042.500,224580.600,209121.900,216256.700,225441.800,0.000
260042.200,256777.500,466014.400,474030.700,224573.000,209116.500,216252.300,225434.800,0.000
260049.700,256779.600,466005.400,474026.100,224578.500,209115.100,216254.100,225431.800,0.000
260051.900,256781.000,465996.100,474019.000,224577.300,209112.000,216251.900,225430.900,0.000
260049.900,256782.500,465987.800,474009.300,224565.700,209108.400,216247.000,225431.300,0.000
260051.300,256785.000,465985.100,474002.200,224560.800,209106.700,216243.800,225431.600,0.000
260055.900,256786.000,465978.300,473999.700,224573.000,209110.800,216251.700,225437.500,0.000
260057.400,256787.600,465965.800,473993.300,224580.800,209112.800,216254.800,225442.400,0.000
260055.900,256790.500,465956.000,473986.600,224578.600,209115.600,216256.600,225449.000,0.000
260052.100,256787.800,465944.300,473979.800,224574.600,209117.700,216261.300,225454.400,0.000
260056.100,256788.800,465936.200,473973.900,224583.600,209121.700,216268.000,225458.600,0.000
260063.800,256792.900,465930.300,473968.800,224595.100,209126.700,216272.500,225461.600,0.000
260058.700,256791.400,465916.300,473953.800,224585.300,209122.500,216268.300,225459.500,0.000
260052.600,256788.800,465901.800,473942.100,224576.600,209120.500,216266.000,225458.600,0.000
260051.700,256785.200,465888.200,473932.400,224580.800,209122.200,216266.600,225457.400,0.000
260055.800,256785.700,465879.400,473928.000,224588.900,209124.500,216271.100,225458.000,0.000
260056.000,256786.200,465867.200,473919.000,224584.000,209122.900,216265.100,225457.100,0.000
260050.600,256783.200,465852.800,473906.300,224576.600,209117.600,216255.800,225453.700,0.000
260045.400,256777.600,465837.600,473897.500,224569.400,209111.000,216251.800,225447.000,0.000
260049.300,256777.100,465832.200,473891.800,224579.500,209114.100,216255.900,225444.800,0.000
260047.900,256776.500,465823.000,473879.600,224577.800,209112.200,216253.600,225440.500,0.000
260045.000,256773.100,465806.000,473867.600,224566.000,209110.100,216248.100,225435.600,0.000
260049.500,256779.400,465803.900,473864.100,224569.900,209113.600,216248.000,225434.700,0.000
260059.100,256785.900,465803.000,473866.500,224586.000,209121.500,216254.900,225443.000,0.000
260059.300,256786.400,465790.200,473855.200,224582.900,209116.800,216248.500,225442.700,0.000
260056.800,256790.200,465781.400,473845.300,224571.700,209112.000,216242.700,225442.900,0.000
260059.000,256792.200,465773.400,473841.100,224569.600,209111.500,216242.300,225441.100,0.000
260066.000,256795.300,465769.700,473840.100,224581.000,209116.300,216251.600,225441.800,0.000
260065.100,256793.800,465761.100,473829.300,224579.300,209112.600,216248.100,225433.800,0.000
260056.800,256788.700,465747.900,473814.300,224566.300,209105.600,216240.500,225430.600,0.000
260058.500,256790.300,465743.000,473810.200,224565.800,209108.200,216243.400,225434.200,0.000
260066.200,256794.600,465741.600,473810.800,224579.100,209114.800,216250.300,225439.300,0.000
260065.400,256791.300,465732.300,473800.900,224581.400,209110.000,216248.100,225438.500,0.000
260053.400,256785.200,465714.500,473782.900,224565.000,209102.000,216239.800,225435.100,0.000
260049.100,256784.400,465707.200,473774.600,224558.500,209099.900,216239.400,225434.600,0.000
260051.300,256782.600,465702.600,473771.300,224568.800,209104.300,216247.500,225438.200,0.000
260056.000,256785.800,465693.400,473769.900,224582.700,209111.800,216258.100,225447.100,0.000
260050.000,256784.500,465680.700,473756.300,224574.300,209105.900,216253.000,225442.700,0.000
260048.500,256786.100,465671.900,473747.000,224569.200,209104.400,216248.400,225442.100,0.000
260055.900,256792.000,465671.800,473749.200,224579.400,209111.000,216253.000,225448.100,0.000
260065.100,256797.400,465671.500,473750.900,224596.200,209120.100,216259.900,225455.300,0.000
260064.200,256798.400,465660.900,473740.700,224594.000,209120.100,216258.400,225455.200,0.000
260057.500,256795.700,465648.800,473729.400,224584.400,209118.800,216256.100,225452.700,0.000
260061.000,256799.100,465643.400,473725.400,224589.400,209127.400,216264.300,225457.000,0.000
260065.800,256798.400,465634.200,473719.100,224599.800,209131.000,216271.300,225457.000,0.000
260057.300,256791.700,465616.100,473704.700,224593.700,209124.400,216264.000,225450.900,0.000
260050.000,256789.500,465598.900,473693.300,224583.300,209122.000,216261.500,225451.200,0.000
260053.200,256791.900,465590.900,473688.400,224583.900,209125.300,216263.700,225451.500,0.000
260068.500,256802.300,465592.800,473691.400,224600.700,209133.900,216271.400,225456.300,0.000
260066.700,256802.000,465586.900,473681.200,224601.200,209132.800,216269.600,225453.300,0.000
260060.100,256796.500,465578.600,473664.200,224587.800,209127.300,216261.900,225448.800,0.000
260064.300,256802.400,465571.800,473659.300,224584.900,209127.100,216257.800,225446.200,0.000
260067.800,256803.100,465564.300,473655.700,224590.800,209127.000,216259.200,225444.200,0.000
260067.900,256802.400,465557.900,473650.300,224596.100,209127.100,216264.000,225446.000,0.000
260066.000,256803.300,465547.200,473643.000,224587.900,209124.900,216263.100,225446.500,0.000
260065.800,256803.300,465537.600,473638.900,224585.700,209126.600,216263.300,225451.000,0.000
260072.300,256805.700,465535.700,473639.200,224597.600,209133.500,216271.100,225459.000,0.000
260072.900,256804.100,465528.000,473628.300,224604.300,209133.800,216266.800,225453.400,0.000
260065.600,256799.900,465515.300,473610.000,224594.900,209129.500,216256.900,225446.700,0.000
260058.400,256794.400,465500.800,473598.100,224583.100,209123.800,216253.000,225444.900,0.000
260058.900,256791.500,465491.900,473596.200,224588.600,209124.700,216258.900,225448.600,0.000
260055.200,256786.700,465483.000,473590.500,224596.600,209125.700,216264.300,225451.000,0.000
260041.100,256776.300,465468.000,473571.800,224585.300,209122.200,216261.700,225448.500,0.000
260037.500,256774.300,465455.700,473561.300,224575.300,209121.300,216259.300,225449.000,0.000
260041.000,256775.500,465443.700,473558.400,224576.800,209122.100,216262.300,225453.100,0.000
260047.700,256779.500,465441.200,473555.000,224591.400,209125.700,216268.300,225456.100,0.000
260048.800,256783.600,465435.800,473542.200,224589.400,209125.900,216268.300,225455.000,0.000
260049.000,256786.400,465428.300,473532.300,224580.100,209122.800,216263.800,225452.100,0.000
260050.100,256787.900,465424.100,473529.100,224581.700,209125.400,216269.400,225456.500,0.000
260053.500,256787.200,465416.000,473522.600,224588.400,209123.900,216270.200,225454.600,0.000
260046.300,256780.900,465403.500,473509.100,224582.600,209118.700,216262.600,225448.000,0.000
260039.700,256775.300,465391.000,473495.600,224570.100,209115.600,216256.200,225447.300,0.000
260041.800,256777.600,465390.800,473495.200,224574.500,209123.600,216260.600,225451.200,0.000
260052.200,256782.000,465392.900,473498.800,224592.300,209135.000,216269.700,225457.000,0.000
260051.700,256782.100,465383.400,473490.400,224592.500,209134.100,216265.800,225452.300,0.000
260044.800,256776.000,465370.100,473478.700,224579.800,209128.000,216257.000,225446.800,0.000
260045.900,256777.800,465364.200,473478.200,224578.600,209129.700,216259.000,225449.400,0.000
260050.100,256780.900,465361.500,473478.900,224588.600,209131.300,216262.500,225451.200,0.000
260050.600,256781.400,465355.100,473471.000,224591.500,209130.200,216261.700,225449.700,0.000
260044.600,256782.700,465348.200,473459.800,224583.100,209129.900,216257.300,225449.100,0.000
260046.000,256786.800,465337.800,473453.300,224580.900,209129.200,216258.500,225450.100,0.000
260055.400,256790.600,465334.200,473448.800,224589.500,209132.900,216266.500,225453.500,0.000
260056.400,256789.000,465330.100,473441.200,224597.800,209132.200,216270.200,225454.600,0.000
260049.700,256788.200,465314.900,473429.600,224588.700,209126.600,216264.200,225453.000,0.000
260045.000,256787.500,465302.900,473420.300,224580.800,209122.100,216264.000,225453.300,0.000
260051.000,256789.800,465296.800,473415.500,224583.600,209123.800,216270.900,225458.000,0.000
260058.100,256793.600,465294.500,473415.400,224593.400,209129.400,216278.700,225467.400,0.000
260053.500,256793.800,465283.100,473406.500,224586.700,209125.800,216276.700,225469.500,0.000
260048.600,256790.200,465268.100,473393.600,224575.600,209121.000,216270.900,225465.200,0.000
260054.700,256787.400,465262.600,473390.300,224580.900,209122.900,216272.800,225465.000,0.000
260061.700,256786.600,465259.700,473388.700,224592.100,209126.900,216281.200,225471.300,0.000
260057.500,256786.200,465250.100,473375.500,224589.400,209126.300,216279.000,225470.100,0.000
260052.100,256785.600,465234.600,473359.500,224581.200,209121.400,216272.200,225464.000,0.000
260057.700,256792.500,465232.000,473358.800,224588.200,209128.000,216281.000,225469.900,0.000
260064.200,256794.400,465231.100,473354.900,224603.700,209136.300,216289.600,225473.300,0.000
260060.100,256790.700,465224.800,473343.800,224604.200,209139.200,216287.200,225472.000,0.000
260053.300,256785.200,465212.600,473331.100,224593.400,209137.100,216281.600,225466.600,0.000
260047.900,256780.300,465202.700,473321.700,224590.300,209133.300,216277.400,225459.300,0.000
260050.000,256779.600,465199.200,473317.000,224603.200,209136.900,216281.100,225457.900,0.000
260048.500,256778.600,465185.900,473304.800,224603.200,209133.800,216275.200,225450.500,0.000
260046.600,256781.200,465176.600,473296.300,224594.000,209133.000,216266.900,225447.000,0.000
260045.700,256779.700,465167.000,473285.500,224587.800,209130.400,216258.600,225440.000,0.000
260050.800,256779.400,465163.400,473281.300,224596.700,209132.300,216260.700,225441.300,0.000
260050.800,256777.400,465157.800,473274.200,224601.800,209135.800,216260.800,225443.100,0.000
260042.300,256772.900,465143.400,473259.100,224589.200,209129.100,216253.000,225438.800,0.000
260037.500,256770.100,465130.300,473251.400,224581.500,209123.400,216249.700,225434.300,0.000
260040.800,256771.600,465121.600,473251.100,224586.700,209122.000,216254.700,225437.800,0.000
260042.700,256772.600,465112.200,473245.700,224592.000,209120.900,216256.000,225439.800,0.000
260036.900,256770.900,465098.800,473235.500,224579.000,209116.500,216253.000,225443.500,0.000
260031.100,256768.300,465086.700,473227.800,224569.200,209113.700,216253.500,225446.000,0.000
260034.900,256769.300,465080.500,473224.600,224571.300,209114.900,216257.100,225450.600,0.000
260041.600,256774.000,465076.700,473219.200,224580.600,209117.500,216262.400,225454.000,0.000
260037.000,256772.700,465066.400,473206.000,224574.400,209116.100,216259.800,225452.600,0.000
260030.300,256770.000,465050.500,473194.000,224564.800,209112.100,216255.300,225448.100,0.000
260032.600,256771.200,465043.500,473187.700,224570.300,209113.500,216255.300,225445.800,0.000
260036.300,256772.400,465037.500,473182.100,224578.400,209114.500,216256.000,225444.500,0.000
260034.000,256772.200,465027.300,473172.700,224570.800,209110.300,216248.000,225439.400,0.000
260033.100,256771.400,465018.500,473158.400,224560.800,209107.000,216241.800,225435.100,0.000
260037.400,256774.900,465016.600,473153.200,224563.300,209105.800,216244.100,225434.700,0.000
260043.800,256779.500,465013.000,473149.800,224575.700,209106.700,216250.400,225433.400,0.000
260047.000,256783.800,465005.700,473142.600,224576.500,209106.800,216249.800,225431.800,0.000
260037.200,256777.800,464991.000,473127.900,224559.600,209096.600,216237.700,225420.900,0.000
260034.500,256775.000,464979.900,473121.500,224554.200,209092.000,216233.500,225418.000,0.000
260043.300,256776.800,464978.300,473120.700,224565.200,209094.200,216237.800,225421.600,0.000
260045.800,256778.900,464975.000,473119.400,224570.400,209097.400,216240.400,225426.200,0.000
260038.700,256775.700,464964.000,473110.400,224559.000,209094.400,216234.300,225424.000,0.000
260039.200,256775.400,464959.800,473109.800,224560.500,209099.100,216241.000,225432.900,0.000
260046.800,256776.800,464958.400,473112.500,224575.000,209110.300,216254.400,225445.800,0.000
260053.900,256780.100,464954.300,473108.800,224585.700,209119.600,216262.900,225451.600,0.000
260051.300,256783.600,464943.600,473095.300,224575.200,209114.400,216259.700,225448.300,0.000
260044.000,256778.300,464925.300,473081.200,224563.100,209105.700,216251.000,225439.800,0.000
260051.900,256782.500,464918.100,473079.000,224572.700,209110.800,216254.800,225441.800,0.000
260054.900,256783.300,464915.000,473073.400,224582.400,209115.400,216258.600,225443.100,0.000
260044.700,256777.300,464903.700,473058.100,224571.900,209111.000,216252.700,225437.600,0.000
260042.400,256777.000,464896.100,473048.000,224563.800,209109.700,216248.200,225434.400,0.000
260048.500,256779.400,464895.200,473044.800,224572.100,209114.600,216255.100,225438.300,0.000
260058.400,256784.400,464893.800,473043.000,224585.400,209121.100,216261.000,225441.800,0.000
260054.600,256780.100,464881.400,473028.700,224576.100,209115.200,216253.000,225437.700,0.000
260050.500,256778.300,464872.200,473019.300,224567.600,209112.700,216253.000,225438.900,0.000
260050.500,256776.600,464861.600,473013.500,224566.700,209111.600,216250.100,225436.400,0.000
260055.500,256776.500,464854.200,473009.300,224574.600,209112.400,216250.500,225437.400,0.000
260052.500,256776.000,464844.200,472997.600,224569.200,209106.600,216244.600,225434.700,0.000
260046.600,256774.000,464833.600,472983.000,224555.900,209099.200,216236.400,225428.200,0.000
260050.100,256774.800,464829.200,472979.100,224557.200,209101.300,216242.800,225430.800,0.000
260055.500,256774.100,464828.500,472975.400,224570.300,209106.100,216251.400,225435.300,0.000
260050.800,256769.500,464814.700,472965.400,224572.200,209108.000,216251.000,225436.000,0.000
260038.500,256761.700,464795.400,472946.300,224556.600,209101.300,216240.500,225425.800,0.000
260034.900,256760.500,464788.300,472939.300,224553.900,209101.000,216243.300,225427.400,0.000
260047.200,256767.500,464789.600,472943.900,224571.400,209110.500,216253.400,225433.500,0.000
260045.000,256762.900,464778.300,472932.600,224573.800,209109.300,216251.200,225427.900,0.000
260036.300,256760.600,464767.200,472915.600,224562.900,209107.100,216240.800,225417.400,0.000
260040.300,256769.200,464764.000,472911.700,224564.200,209114.100,216243.700,225422.200,0.000
260048.200,256776.200,464765.800,472914.900,224576.500,209121.200,216253.000,225430.000,0.000
260056.100,256781.700,464766.400,472915.100,224587.100,209129.100,216259.300,225434.400,0.000
260048.200,256778.000,464754.800,472901.400,224576.400,209124.800,216253.100,225432.300,0.000
260040.800,256773.000,464743.200,472890.300,224566.100,209117.900,216248.900,225431.900,0.000
260043.300,256771.600,464737.900,472888.400,224569.100,209119.400,216251.600,225434.600,0.000
260045.900,256773.100,464732.000,472884.900,224574.200,209121.800,216253.900,225437.600,0.000
260035.800,256768.600,464716.300,472870.900,224557.800,209111.600,216246.500,225433.200,0.000
260031.700,256764.700,464707.000,472861.100,224548.000,209108.600,216246.800,225436.200,0.000
260040.200,256767.500,464704.800,472857.800,224554.800,209112.500,216255.600,225442.700,0.000
260046.400,256768.000,464699.900,472850.600,224563.600,209112.900,216261.500,225444.300,0.000
260038.100,256763.100,464688.100,472836.300,224556.500,209107.400,216257.500,225439.000,0.000
260038.200,256768.500,464680.500,472832.800,224555.100,209112.700,216260.400,225444.300,0.000
260036.900,256768.400,464673.700,472828.500,224557.900,209115.800,216261.600,225443.400,0.000
260045.100,256772.000,464669.900,472824.800,224567.600,209118.100,216259.600,225438.000,0.000
260048.400,256776.600,464662.800,472810.800,224565.800,209115.000,216250.700,225432.900,0.000
260046.600,256778.200,464652.200,472795.700,224557.600,209114.300,216241.500,225424.000,0.000
260050.200,256781.000,464646.200,472791.800,224557.100,209116.100,216243.600,225423.500,0.000
260062.500,256787.900,464644.300,472792.300,224571.400,209123.200,216253.300,225428.300,0.000
260059.100,256787.700,464631.500,472779.900,224567.800,209119.500,216247.600,225423.000,0.000
260047.300,256784.300,464618.000,472765.500,224551.300,209109.100,216239.100,225417.300,0.000
260042.700,256780.300,464610.200,472762.600,224546.700,209106.900,216239.600,225419.200,0.000
260052.700,256784.400,464614.800,472770.000,224561.100,209114.300,216249.800,225428.300,0.000
260057.500,256788.300,464614.400,472771.500,224569.200,209119.000,216256.900,225439.600,0.000
260053.000,256789.500,464604.300,472762.000,224558.900,209116.500,216254.500,225441.500,0.000
260053.200,256791.500,464596.900,472756.700,224554.800,209116.900,216255.300,225441.000,0.000
260062.900,256795.900,464594.400,472753.600,224564.000,209118.100,216259.900,225442.900,0.000
260071.000,256801.500,464594.500,472751.200,224573.400,209122.300,216266.200,225444.700,0.000
260069.500,256804.200,464589.000,472742.100,224568.300,209124.800,216262.300,225445.600,0.000
260066.800,256802.300,464583.300,472734.000,224562.400,209125.700,216258.600,225445.600,0.000
260077.000,256806.800,464587.500,472735.700,224576.400,209134.200,216267.500,225448.600,0.000
260078.100,256805.600,464574.900,472728.200,224582.400,209133.600,216266.200,225442.900,0.000
260070.300,256802.400,464561.400,472712.500,224569.600,209127.300,216255.000,225435.600,0.000
260072.800,256805.700,464555.600,472710.700,224568.200,209129.700,216255.700,225438.300,0.000
260073.400,256804.700,464547.200,472705.100,224569.000,209128.900,216254.800,225436.400,0.000
260072.200,256800.600,464537.500,472696.900,224577.700,209129.700,216256.000,225434.200,0.000
260061.900,256793.600,464520.800,472680.900,224571.800,209124.600,216251.600,225431.100,0.000
260053.300,256789.200,464506.700,472669.300,224561.500,209119.600,216249.400,225432.500,0.000
260055.600,256791.500,464503.600,472668.400,224567.300,209124.500,216256.500,225439.700,0.000
260062.400,256793.600,464500.900,472666.700,224580.400,209130.200,216266.300,225448.100,0.000
260059.200,256793.200,464491.400,472655.100,224578.600,209129.000,216265.500,225449.400,0.000
260051.400,256787.800,464479.700,472644.800,224572.700,209130.000,216263.300,225448.700,0.000
260047.600,256782.900,464470.000,472635.500,224571.500,209132.000,216265.800,225450.500,0.000
260050.400,256781.200,464463.800,472628.700,224580.600,209133.400,216269.700,225450.200,0.000
260045.800,256776.200,464458.000,472617.600,224583.500,209134.000,216270.500,225449.900,0.000
260037.200,256771.900,464444.500,472604.700,224575.900,209133.000,216266.600,225447.800,0.000
260032.700,256769.100,464434.100,472597.200,224574.700,209132.200,216263.200,225445.100,0.000
260043.900,256774.700,464433.700,472597.100,224585.700,209136.400,216265.800,225445.400,0.000
260049.700,256779.400,464430.300,472591.500,224591.300,209139.500,216264.100,225445.300,0.000
260042.900,256775.500,464418.100,472579.300,224578.200,209133.300,216255.700,225436.800,0.000
260040.500,256775.300,464410.100,472573.700,224570.300,209128.700,216251.700,225434.100,0.000
260045.500,256777.300,464410.100,472572.300,224578.500,209129.800,216256.800,225438.400,0.000
260046.300,256776.000,464403.600,472564.000,224581.100,209125.300,216255.700,225439.600,0.000
260043.200,256775.000,464393.500,472554.400,224567.500,209118.300,216249.200,225438.800,0.000
260047.800,256781.900,464389.000,472553.300,224560.500,209117.500,216249.700,225440.300,0.000
260054.400,256786.500,464387.400,472554.300,224567.400,209121.500,216257.100,225446.700,0.000
260066.800,256793.400,464391.600,472558.300,224584.600,209131.500,216272.000,225457.900,0.000
260070.000,256799.700,464388.000,472551.800,224582.100,209134.900,216275.100,225463.000,0.000
260062.800,256796.300,464378.200,472539.100,224574.100,209133.300,216267.400,225456.600,0.000
260063.700,256796.300,464376.700,472532.000,224581.500,209139.100,216273.200,225459.500,0.000
260070.500,256799.600,464375.400,472529.800,224596.700,209148.300,216280.000,225465.000,0.000
260066.400,256797.500,464364.400,472518.800,224592.700,209145.900,216274.400,225461.200,0.000
260056.200,256792.800,464349.100,472506.600,224578.900,209139.800,216267.100,225456.200,0.000
260054.600,256791.300,464337.400,472501.600,224575.500,209136.300,216268.700,225456.300,0.000
260060.100,256791.000,464336.100,472500.000,224586.400,209138.100,216275.600,225459.600,0.000
260060.000,256791.900,464328.700,472494.100,224589.100,209140.700,216278.300,225465.200,0.000
260051.000,256788.400,464309.800,472480.100,224574.100,209133.900,216270.900,225461.500,0.000
260048.200,256786.200,464298.400,472472.500,224571.000,209133.300,216271.100,225463.000,0.000
260058.500,256792.100,464298.400,472474.400,224585.100,209141.600,216280.900,225473.000,0.000
260057.100,256789.300,464289.700,472462.600,224582.200,209140.500,216277.300,225470.600,0.000
260047.600,256783.800,464274.600,472444.300,224563.400,209132.100,216268.400,225463.800,0.000
260046.600,256782.300,464264.300,472433.900,224558.200,209129.500,216269.400,225461.900,0.000
260053.800,256786.100,464263.900,472433.600,224571.500,209134.600,216279.900,225461.900,0.000
260053.400,256783.300,464257.800,472425.300,224572.700,209133.800,216278.300,225453.000,0.000
260045.000,256778.900,464244.100,472411.400,224560.600,209124.600,216267.400,225444.300,0.000
260045.500,256780.800,464234.700,472404.700,224557.500,209121.200,216262.000,225442.600,0.000
260053.200,256784.100,464232.400,472403.100,224566.800,209122.800,216260.200,225441.900,0.000
260059.000,256787.100,464228.300,472400.200,224573.100,209123.200,216256.500,225442.500,0.000
260056.300,256789.000,464218.300,472389.000,224559.000,209115.600,216247.100,225436.700,0.000
260052.400,256788.800,464204.100,472378.400,224547.800,209109.400,216238.100,225427.600,0.000
260061.700,256796.800,464210.300,472381.600,224562.600,209119.600,216247.100,225433.900,0.000
260066.200,256797.900,464208.500,472378.300,224572.500,209120.100,216249.100,225434.900,0.000
260060.200,256796.300,464196.200,472366.600,224566.500,209116.500,216245.400,225432.400,0.000
260061.500,256800.500,464191.300,472360.000,224566.200,209121.700,216243.700,225435.100,0.000
260063.800,256802.000,464185.800,472357.500,224574.500,209128.100,216246.000,225440.400,0.000
260067.400,256800.000,464179.900,472354.200,224587.600,209133.800,216255.300,225447.200,0.000
260063.700,256797.100,464167.100,472340.800,224582.600,209129.700,216253.700,225445.200,0.000
260061.900,256799.000,464158.700,472334.600,224576.000,209131.900,216260.200,225453.200,0.000
260058.800,256796.800,464148.600,472328.800,224573.200,209130.700,216268.900,225456.000,0.000
260059.500,256792.900,464137.400,472322.200,224581.900,209132.400,216275.200,225457.400,0.000
260054.700,256788.000,464125.600,472310.800,224578.700,209129.300,216274.500,225457.500,0.000
260046.600,256785.300,464111.600,472296.300,224564.300,209122.800,216266.800,225453.600,0.000
260046.300,256784.800,464104.300,472289.200,224562.100,209121.200,216268.900,225453.700,0.000
260053.300,256786.300,464105.400,472288.700,224575.500,209126.700,216277.700,225459.800,0.000
260053.300,256784.500,464093.600,472282.300,224578.400,209127.300,216276.400,225462.000,0.000
260046.800,256781.400,464080.900,472271.000,224569.100,209125.100,216269.400,225458.400,0.000
260041.500,256777.700,464069.500,472263.100,224565.500,209123.400,216266.000,225457.300,0.000
260046.700,256777.800,464064.200,472262.200,224576.500,209126.300,216271.700,225460.500,0.000
260047.300,256778.100,464056.800,472257.300,224581.800,209128.200,216274.500,225459.900,0.000
260042.400,256777.100,464041.300,472242.200,224571.800,209123.500,216268.000,225455.500,0.000
260038.800,256776.100,464026.700,472229.800,224564.600,209116.000,216262.500,225450.100,0.000
260047.600,256781.700,464026.000,472230.200,224578.200,209118.800,216269.300,225454.400,0.000
260048.500,256778.200,464017.200,472224.100,224584.000,209118.200,216264.000,225450.100,0.000
260041.900,256772.700,464003.800,472209.900,224575.000,209113.800,216252.600,225443.200,0.000
260037.100,256769.500,463989.600,472198.900,224567.000,209110.100,216247.100,225438.000,0.000
260045.700,256774.300,463983.900,472196.900,224576.100,209114.500,216253.400,225436.300,0.000
260053.500,256778.500,463978.600,472192.800,224588.800,209117.200,216256.200,225433.800,0.000
260049.500,256778.500,463964.600,472177.800,224579.900,209110.500,216245.600,225425.100,0.000
260048.600,256780.100,463955.400,472169.400,224572.000,209108.100,216239.600,225421.500,0.000
260051.900,256781.300,463945.700,472165.500,224578.300,209111.000,216242.000,225420.100,0.000
260054.000,256778.100,463930.300,472161.500,224591.100,209117.300,216248.300,225423.000,0.000
260049.900,256776.000,463920.800,472153.700,224591.100,209121.700,216249.900,225428.600,0.000
260038.500,256768.900,463903.700,472141.400,224580.000,209119.300,216248.300,225430.000,0.000
260036.400,256765.500,463891.800,472135.800,224581.100,209124.100,216255.500,225436.000,0.000
260042.100,256768.700,463887.100,472137.100,224590.900,209128.800,216269.800,225448.200,0.000
260038.200,256765.900,463872.300,472127.300,224586.000,209124.200,216273.200,225451.200,0.000
260031.200,256762.700,463858.000,472117.100,224573.700,209119.600,216270.900,225451.400,0.000
260031.900,256764.000,463849.200,472113.900,224570.500,209120.800,216276.000,225457.300,0.000
260041.200,256769.200,463845.700,472113.400,224582.400,209124.400,216282.500,225463.200,0.000
260044.500,256772.000,463839.300,472105.800,224586.200,209125.200,216279.800,225462.900,0.000
260034.900,256766.400,463822.200,472090.000,224571.800,209116.700,216270.800,225455.900,0.000
260035.400,256765.800,463809.600,472081.300,224566.600,209111.700,216263.100,225449.400,0.000
260043.900,256771.000,463810.500,472080.800,224577.200,209117.100,216268.800,225453.200,0.000
260042.400,256768.600,463801.900,472070.400,224578.200,209115.400,216265.900,225448.100,0.000
260037.700,256767.500,463786.100,472058.200,224567.500,209113.200,216259.500,225443.800,0.000
260040.300,256772.200,463779.800,472054.200,224564.800,209115.200,216261.900,225449.500,0.000
260047.100,256776.200,463774.300,472052.700,224572.700,209115.700,216264.200,225450.100,0.000
260053.800,256779.800,463772.700,472051.100,224583.500,209117.500,216261.500,225446.200,0.000
260051.700,256780.600,463766.000,472042.100,224576.700,209116.900,216258.100,225445.000,0.000
260049.100,256780.300,463755.100,472035.000,224569.000,209113.900,216256.700,225444.800,0.000
260056.100,256784.400,463753.000,472033.400,224580.100,209119.700,216263.500,225449.800,0.000
260065.500,256789.700,463751.900,472032.700,224597.900,209128.800,216272.500,225454.500,0.000
260055.800,256785.000,463736.300,472019.400,224588.000,209122.800,216262.900,225449.200,0.000
260045.900,256779.300,463721.300,472008.300,224575.200,209118.500,216255.100,225445.900,0.000
260047.300,256780.100,463712.800,472004.800,224577.500,209118.500,216258.000,225448.300,0.000
260053.500,256782.400,463708.500,472003.500,224587.600,209120.500,216263.000,225451.000,0.000
260053.900,256785.600,463701.300,471998.200,224584.400,209118.700,216259.600,225454.300,0.000
260051.500,256785.300,463693.200,471990.900,224576.200,209118.100,216260.300,225456.400,0.000
260051.700,256786.300,463684.700,471987.100,224576.500,209120.900,216267.100,225459.000,0.000
260058.000,256787.800,463675.300,471983.700,224587.000,209124.800,216274.700,225461.900,0.000
260057.100,256786.500,463669.200,471974.100,224587.800,209126.800,216278.400,225463.700,0.000
260049.200,256782.200,463655.700,471960.800,224575.300,209122.100,216274.400,225460.800,0.000
260046.200,256780.500,463646.400,471953.300,224570.400,209119.300,216276.700,225462.800,0.000
260048.600,256779.400,463640.600,471950.000,224581.700,209122.400,216280.400,225465.700,0.000
260047.000,256776.500,463634.700,471945.300,224588.700,209126.800,216284.200,225468.900,0.000
260041.900,256775.300,463623.000,471934.100,224581.900,209126.300,216281.700,225464.400,0.000
260039.600,256775.200,463612.300,471926.400,224580.200,209128.200,216285.100,225463.900,0.000
260042.400,256776.900,463607.000,471922.700,224583.500,209122.000,216284.500,225459.500,0.000
260043.300,256774.400,463598.100,471913.300,224587.000,209118.500,216278.700,225453.500,0.000
260040.200,256775.200,463588.300,471902.000,224578.600,209116.900,216270.000,225452.000,0.000
260035.700,256772.700,463578.000,471894.400,224570.000,209113.500,216265.300,225449.800,0.000
260039.900,256771.200,463571.300,471889.300,224576.300,209113.400,216263.400,225446.700,0.000
260047.800,256774.400,463568.400,471885.000,224587.000,209119.700,216266.000,225445.900,0.000
260045.700,256775.900,463563.600,471877.200,224579.000,209118.900,216265.000,225445.000,0.000
260042.800,256774.400,463557.200,471872.000,224571.100,209113.000,216262.500,225440.500,0.000
260052.200,256782.300,463552.100,471876.600,224581.800,209118.600,216268.300,225443.500,0.000
260061.600,256788.600,463551.300,471877.000,224595.800,209120.800,216267.900,225444.100,0.000
260060.200,256789.100,463543.300,471868.900,224592.200,209119.200,216259.500,225441.600,0.000
260054.200,256786.100,463529.700,471858.400,224580.500,209113.300,216252.300,225438.000,0.000
260058.500,256788.800,463525.000,471855.900,224585.100,209115.200,216259.900,225444.900,0.000
260065.500,256791.000,463524.200,471855.100,224598.000,209120.600,216271.600,225452.300,0.000
260056.600,256785.700,463513.400,471841.500,224592.000,209118.500,216272.900,225454.300,0.000
260047.900,256780.800,463498.400,471827.800,224578.800,209113.600,216269.000,225451.300,0.000
260047.700,256780.300,463491.700,471821.100,224579.600,209115.500,216271.700,225454.300,0.000
260053.400,256781.000,463490.000,471819.400,224593.100,209121.400,216277.400,225460.200,0.000
260053.100,256781.500,463481.400,471810.000,224593.700,209123.300,216275.800,225461.300,0.000
260046.700,256777.600,463466.500,471795.600,224579.300,209116.000,216270.400,225460.200,0.000
260048.000,256780.300,463463.100,471796.400,224581.700,209119.800,216281.200,225467.100,0.000
260052.400,256781.900,463459.600,471794.000,224591.600,209122.800,216285.600,225465.200,0.000
260055.000,256783.000,463450.400,471785.100,224591.600,209119.200,216283.000,225458.600,0.000
260048.900,256779.600,463435.800,471769.200,224577.200,209107.600,216273.000,225450.000,0.000
260048.100,256780.200,463427.000,471762.300,224571.900,209103.000,216268.700,225446.700,0.000
260053.500,256783.600,463424.900,471760.800,224581.300,209107.200,216269.100,225448.300,0.000
260058.400,256787.400,463418.100,471756.900,224588.700,209111.100,216270.100,225449.000,0.000
260052.100,256787.300,463404.900,471745.900,224575.100,209104.700,216259.400,225443.100,0.000
260051.700,256787.800,463398.400,471742.900,224569.700,209107.100,216261.100,225447.600,0.000
260058.700,256790.300,463397.900,471741.900,224579.100,209114.100,216268.300,225451.400,0.000
260066.200,256792.000,463397.800,471739.700,224591.800,209121.500,216274.100,225455.300,0.000
260062.000,256792.000,463389.900,471729.900,224587.800,209122.600,216270.300,225452.400,0.000
260061.800,256796.000,463385.000,471724.800,224585.100,209125.400,216270.300,225453.500,0.000
260074.400,256806.800,463388.200,471729.100,224599.000,209136.900,216277.100,225458.800,0.000
260086.100,256815.200,463388.500,471730.600,224612.900,209142.200,216282.500,225461.300,0.000
260085.700,256817.800,463379.000,471720.900,224605.900,209137.100,216276.600,225457.700,0.000
260083.400,256818.900,463368.400,471714.100,224595.100,209131.500,216272.300,225456.800,0.000
260085.400,256818.500,463363.300,471712.600,224595.200,209131.300,216277.600,225459.500,0.000
260088.000,256817.400,463358.200,471707.600,224604.700,209135.700,216283.700,225462.600,0.000
260083.600,256814.700,463349.200,471695.900,224602.700,209133.500,216280.400,225461.900,0.000
260075.300,256809.000,463334.900,471681.400,224588.600,209121.500,216273.300,225459.200,0.000
260074.600,256808.400,463320.300,471676.200,224587.100,209118.800,216275.000,225462.100,0.000
260085.000,256813.400,463320.100,471679.300,224602.800,209127.400,216285.600,225470.400,0.000
260078.000,256809.500,463311.000,471669.900,224600.700,209125.300,216284.300,225467.500,0.000
260073.900,256808.500,463300.900,471659.800,224591.500,209124.700,216284.200,225469.000,0.000
260072.600,256809.000,463293.800,471656.200,224591.700,209129.700,216290.800,225477.200,0.000
260076.800,256809.200,463287.000,471653.000,224599.700,209133.600,216296.900,225482.500,0.000
260080.300,256810.200,463279.200,471647.100,224602.800,209136.900,216299.700,225485.900,0.000
260072.400,256807.300,463264.200,471631.700,224588.900,209128.700,216290.600,225479.000,0.000
260065.300,256801.300,463248.300,471622.200,224578.500,209121.700,216284.300,225471.900,0.000
260067.800,256801.800,463244.700,471618.900,224588.400,209127.000,216291.000,225472.400,0.000
260069.200,256801.100,463238.000,471609.000,224593.700,209125.300,216284.200,225463.700,0.000
260060.400,256796.400,463224.600,471593.000,224579.500,209115.700,216270.000,225451.800,0.000
260059.700,256796.600,463220.300,471588.100,224573.700,209115.200,216269.000,225449.700,0.000
260061.800,256795.500,463217.500,471584.400,224579.600,209118.500,216270.800,225449.900,0.000
260068.600,256799.500,463221.100,471583.500,224592.000,209124.200,216273.300,225454.400,0.000
260070.000,256801.500,463211.600,471573.800,224589.300,209122.000,216270.600,225454.100,0.000
260069.900,256804.400,463204.800,471567.600,224583.200,209118.600,216269.900,225454.600,0.000
260070.000,256805.000,463201.100,471565.300,224585.800,209116.200,216269.700,225452.500,0.000
260080.800,256812.900,463204.500,471569.200,224598.700,209122.100,216273.200,225454.500,0.000
260083.600,256814.200,463199.300,471562.100,224597.000,209122.000,216267.900,225453.200,0.000
260080.100,256814.300,463190.200,471553.400,224588.600,209121.000,216260.700,225450.700,0.000
260080.500,256815.200,463187.900,471552.700,224592.700,209123.600,216264.200,225455.300,0.000
260087.500,256818.300,463192.100,471555.600,224608.100,209130.700,216274.900,225462.600,0.000
260085.500,256818.300,463185.000,471546.000,224604.500,209129.900,216274.100,225465.300,0.000
260079.900,256814.400,463173.800,471534.200,224592.300,209126.300,216274.100,225467.300,0.000
260080.200,256814.200,463168.700,471532.300,224593.100,209128.600,216282.400,225474.200,0.000
260086.600,256817.200,463169.800,471534.700,224609.200,209136.500,216293.900,225484.500,0.000
260082.600,256812.300,463160.900,471524.400,224612.300,209138.900,216295.400,225484.900,0.000
260070.100,256805.400,463147.900,471508.700,224599.900,209134.000,216291.300,225481.500,0.000
260058.600,256797.300,463127.600,471495.000,224591.500,209129.400,216288.500,225478.100,0.000
260064.000,256798.800,463122.300,471494.300,224603.900,209136.700,216299.100,225486.100,0.000
260062.500,256796.900,463117.300,471487.400,224611.000,209139.400,216302.000,225487.200,0.000
260053.000,256789.900,463103.500,471472.800,224598.300,209131.500,216289.600,225476.100,0.000
260051.700,256791.400,463094.600,471466.300,224593.400,209130.100,216285.600,225474.000,0.000
260057.700,256793.900,463095.300,471465.700,224605.500,209137.500,216292.700,225477.300,0.000
260060.900,256793.600,463094.600,471458.000,224615.600,209142.100,216294.100,225475.200,0.000
260051.700,256787.500,463082.400,471441.900,224603.600,209137.100,216283.800,225468.400,0.000
260049.200,256785.900,463074.000,471431.300,224595.300,209134.300,216281.800,225469.000,0.000
260054.200,256787.800,463070.200,471430.500,224600.000,209137.500,216288.800,225472.700,0.000
260060.400,256791.700,463068.500,471428.700,224611.300,209140.900,216294.200,225472.300,0.000
260053.300,256788.400,463054.800,471413.600,224598.800,209131.300,216281.700,225463.100,0.000
260050.100,256790.400,463042.900,471405.300,224586.200,209125.700,216274.200,225458.200,0.000
260064.500,256804.800,463045.700,471414.200,224596.600,209133.900,216281.800,225466.000,0.000
260076.600,256812.300,463045.900,471415.300,224604.500,209133.500,216282.900,225465.900,0.000
260071.900,256809.600,463036.200,471403.200,224598.500,209127.900,216271.800,225456.000,0.000
260067.500,256810.400,463031.300,471397.100,224592.000,209127.800,216268.300,225455.300,0.000
260066.900,256808.700,463019.300,471392.300,224589.400,209125.700,216266.800,225455.300,0.000
260080.400,256815.900,463024.100,471397.400,224608.500,209135.400,216274.900,225463.800,0.000
260082.000,256819.200,463020.300,471393.800,224610.100,209139.200,216279.200,225468.200,0.000
260077.800,256819.700,463011.500,471386.500,224598.700,209135.700,216279.000,225471.600,0.000
260079.900,256819.700,463004.800,471383.500,224595.800,209134.400,216280.800,225475.100,0.000
260087.300,256821.700,463003.500,471384.800,224605.500,209139.700,216289.100,225482.400,0.000
260082.600,256818.700,462995.000,471373.900,224605.500,209139.600,216290.200,225483.600,0.000
260071.600,256813.700,462981.400,471359.900,224590.600,209134.900,216287.400,225480.700,0.000
260068.700,256811.800,462975.300,471353.300,224587.800,209135.700,216291.000,225480.000,0.000
260076.700,256816.700,462978.100,471355.300,224604.500,209142.900,216301.700,225486.600,0.000
260079.500,256817.000,462974.400,471350.200,224612.500,209144.800,216308.300,225489.000,0.000
260072.300,256813.200,462960.200,471336.100,224600.400,209140.500,216303.000,225485.400,0.000
260064.200,256807.600,462946.500,471325.100,224592.500,209134.000,216300.300,225483.000,0.000
260072.800,256811.000,462949.000,471325.000,224604.700,209139.300,216309.100,225488.200,0.000
260082.500,256817.000,462950.200,471322.400,224618.100,209146.800,216312.100,225491.300,0.000
260079.400,256816.100,462936.000,471308.100,224608.300,209144.700,216303.500,225485.700,0.000
260079.400,256818.100,462930.500,471300.800,224600.700,209142.500,216300.800,225484.900,0.000
260086.700,256823.000,462929.700,471300.100,224610.500,209145.500,216303.900,225487.800,0.000
260094.100,256827.500,462926.500,471298.600,224623.100,209147.400,216304.000,225486.000,0.000
260088.500,256824.600,462914.300,471286.400,224613.400,209141.200,216291.900,225477.100,0.000
260081.200,256821.100,462899.200,471278.900,224602.500,209137.200,216286.000,225472.900,0.000
260083.700,256821.000,462892.400,471278.500,224605.700,209139.600,216288.800,225475.800,0.000
260091.900,256825.400,462893.800,471279.300,224620.100,209144.800,216293.500,225482.700,0.000
260094.600,256827.800,462893.100,471273.800,224620.600,209147.400,216294.400,225484.300,0.000
260089.000,256826.900,462885.000,471264.300,224611.300,209147.800,216294.100,225483.900,0.000
260091.400,256828.500,462878.200,471261.100,224609.100,209147.200,216296.100,225486.100,0.000
260098.900,256830.300,462875.400,471257.000,224619.500,209147.200,216295.900,225481.500,0.000
260096.700,256830.200,462874.500,471250.700,224620.100,209147.800,216299.700,225486.500,0.000
260094.100,256831.300,462869.700,471245.300,224612.400,209149.100,216304.400,225497.600,0.000
260088.800,256826.600,462856.600,471237.500,224609.300,209145.100,216307.100,225500.400,0.000
260088.100,256821.400,462851.000,471231.900,224615.800,209145.100,216310.400,225500.100,0.000
260084.700,256815.700,462842.100,471222.000,224615.500,209143.900,216306.800,225497.300,0.000
260076.500,256809.400,462829.800,471208.200,224604.300,209139.100,216302.700,225494.200,0.000
260069.400,256801.700,462819.100,471197.400,224596.200,209133.900,216297.000,225485.700,0.000
260073.000,256798.600,462812.200,471190.300,224602.000,209134.400,216295.300,225479.800,0.000
260074.400,256795.100,462804.200,471179.700,224608.800,209135.700,216293.700,225475.800,0.000
260067.800,256792.400,462792.700,471164.200,224600.600,209133.900,216286.500,225470.900,0.000
260062.800,256789.600,462780.000,471151.500,224591.200,209128.200,216279.900,225467.500,0.000
260066.100,256789.900,462773.900,471146.100,224594.500,209128.600,216281.500,225467.300,0.000
260068.600,256788.700,462767.800,471135.700,224600.400,209128.800,216278.500,225464.700,0.000
260058.400,256780.700,462753.400,471117.700,224588.000,209120.900,216270.800,225458.700,0.000
260053.400,256779.400,462741.100,471110.900,224580.100,209116.500,216271.300,225458.800,0.000
260056.800,256782.000,462736.200,471113.200,224587.600,209119.000,216274.600,225461.700,0.000
260063.900,256785.000,462731.000,471115.300,224598.600,209123.600,216279.600,225463.600,0.000
260066.000,256790.200,462729.300,471114.500,224595.600,209124.400,216279.600,225468.600,0.000
260062.300,256789.500,462723.000,471109.300,224583.700,209118.700,216270.100,225466.000,0.000
260068.200,256793.000,462720.900,471111.800,224586.100,209118.500,216274.900,225468.900,0.000
260081.400,256800.900,462724.100,471117.000,224600.500,209124.300,216286.800,225472.300,0.000
260082.600,256804.700,462720.300,471107.400,224596.700,209123.600,216281.700,225466.700,0.000
260081.600,256804.000,462714.700,471099.600,224586.200,209123.200,216274.900,225464.300,0.000
260087.200,256807.200,462712.800,471098.600,224593.400,209131.500,216279.300,225466.600,0.000
260090.800,256807.300,462709.800,471093.800,224607.400,209133.500,216281.300,225463.500,0.000
260082.500,256800.400,462697.400,471076.300,224601.300,209126.300,216272.700,225456.300,0.000
260078.500,256800.000,462686.800,471064.500,224590.800,209123.800,216270.800,225458.500,0.000
260085.400,256806.300,462686.000,471064.800,224594.600,209131.200,216283.900,225470.100,0.000
260092.800,256808.800,462686.700,471063.100,224605.800,209138.500,216297.200,225482.000,0.000
260091.500,256806.800,462674.500,471055.400,224611.700,209142.300,216306.200,225491.900,0.000
260083.200,256802.700,462660.800,471043.400,224599.800,209140.300,216303.200,225492.100,0.000
260080.800,256802.600,462650.700,471036.500,224595.000,209140.500,216302.700,225490.600,0.000
260084.400,256803.100,462647.900,471036.000,224606.900,209147.700,216310.800,225497.000,0.000
260083.200,256799.300,462642.200,471028.900,224610.100,209148.200,216313.300,225496.700,0.000
260075.900,256794.300,462629.200,471013.100,224596.100,209140.300,216303.600,225490.500,0.000
260074.500,256795.700,462616.700,471003.000,224585.000,209133.200,216294.400,225485.200,0.000
260080.200,256799.300,462612.800,470999.200,224586.500,209129.000,216294.200,225481.400,0.000
260085.900,256802.600,462614.200,470998.900,224595.800,209129.700,216298.100,225479.000,0.000
260084.500,256803.900,462608.200,470989.200,224586.800,209122.000,216289.000,225472.900,0.000
260078.900,256800.600,462598.500,470983.700,224576.800,209116.800,216277.900,225466.900,0.000
260086.600,256806.300,462600.100,470986.300,224586.700,209122.100,216280.900,225468.900,0.000
260090.400,256805.900,462596.700,470977.800,224591.100,209118.100,216275.800,225460.900,0.000
260085.800,256804.800,462583.100,470963.000,224579.200,209109.200,216266.200,225451.900,0.000
260081.900,256804.400,462572.400,470953.600,224571.800,209108.100,216263.200,225450.400,0.000
260085.200,256805.500,462573.200,470951.400,224576.700,209112.600,216265.000,225451.800,0.000
260097.300,256813.200,462575.500,470951.500,224592.700,209119.800,216271.100,225456.200,0.000
260102.300,256820.300,462571.600,470947.900,224598.600,209125.600,216271.400,225458.200,0.000
260100.100,256821.300,462563.500,470938.300,224592.200,209127.100,216267.500,225456.900,0.000
260100.500,256821.400,462555.200,470932.300,224592.000,209129.700,216267.400,225454.800,0.000
260109.900,256824.200,462554.900,470932.100,224609.000,209138.400,216279.200,225463.300,0.000
260110.300,256825.800,462550.500,470924.300,224611.700,209142.400,216284.000,225467.700,0.000
260103.800,256823.400,462540.400,470914.000,224601.600,209140.000,216281.700,225467.800,0.000
260101.100,256825.500,462534.800,470912.800,224600.300,209140.500,216289.600,225479.000,0.000
260104.000,256825.800,462529.700,470911.800,224610.300,209142.700,216297.300,225488.100,0.000
260106.400,256823.400,462525.700,470904.400,224613.000,209143.400,216299.000,225491.600,0.000
260099.300,256817.800,462514.200,470890.400,224598.800,209137.700,216289.900,225486.900,0.000
260091.600,256813.600,462496.700,470882.400,224590.900,209133.900,216289.600,225489.900,0.000
260099.800,256817.000,462495.400,470881.800,224602.000,209138.200,216303.600,225498.500,0.000
260103.100,256816.700,462491.900,470878.800,224604.700,209139.800,216308.300,225502.400,0.000
260096.100,256814.700,462483.200,470868.500,224592.300,209134.200,216299.500,225497.200,0.000
260091.900,256813.400,462467.400,470857.500,224578.700,209124.500,216290.300,225487.500,0.000
260094.100,256815.200,462457.300,470850.800,224576.800,209119.100,216286.500,225480.900,0.000
260099.000,256819.400,462455.000,470851.400,224585.700,209121.900,216291.800,225482.000,0.000
260092.800,256816.500,462445.600,470843.000,224579.400,209123.000,216288.300,225480.400,0.000
260093.900,256815.600,462439.400,470835.200,224571.400,209122.800,216285.200,225477.500,0.000
260094.700,256811.500,462433.500,470827.400,224573.600,209120.500,216282.200,225472.400,0.000
260098.500,256812.000,462434.000,470823.100,224584.400,209121.700,216285.400,225471.600,0.000
260097.800,256812.900,462432.200,470813.000,224582.700,209122.100,216281.200,225467.500,0.000
260097.300,256815.500,462430.300,470802.800,224575.300,209119.300,216274.100,225462.100,0.000
260103.200,256820.100,462432.800,470802.300,224581.000,209122.400,216279.300,225463.500,0.000
260113.200,256825.000,462431.500,470803.400,224596.400,209128.400,216285.700,225466.000,0.000
260112.600,256827.200,462427.300,470795.900,224595.500,209123.200,216278.000,225462.800,0.000
260106.100,256826.300,462417.000,470784.400,224580.800,209113.300,216262.700,225452.800,0.000
260104.600,256825.000,462405.200,470780.900,224577.100,209109.600,216259.300,225446.000,0.000
260115.900,256830.700,462404.100,470779.500,224588.000,209113.000,216262.200,225443.600,0.000
260120.100,256835.700,462401.800,470775.300,224592.000,209116.000,216263.800,225443.400,0.000
260112.500,256833.900,462393.100,470767.800,224583.500,209114.300,216263.300,225445.800,0.000
260109.900,256831.300,462384.100,470764.800,224582.200,209115.900,216268.200,225453.000,0.000
260112.400,256827.700,462378.500,470762.900,224592.400,209119.700,216277.600,225463.900,0.000
260110.200,256824.600,462366.100,470753.700,224592.800,209119.500,216278.300,225468.600,0.000
260106.500,256826.300,462354.600,470744.300,224584.300,209121.200,216281.800,225475.100,0.000
260105.800,256828.200,462348.800,470739.800,224582.800,209125.700,216292.800,225484.300,0.000
260108.000,256826.800,462346.100,470740.900,224594.200,209133.500,216309.700,225496.000,0.000
260106.000,256822.100,462337.800,470734.400,224602.000,209142.100,216322.700,225505.700,0.000
260097.700,256817.400,462325.500,470718.700,224590.000,209137.100,216314.200,225499.500,0.000
260093.300,256813.800,462310.900,470705.200,224580.000,209129.300,216305.000,225491.700,0.000
260100.200,256819.600,462311.700,470706.600,224589.200,209135.400,216311.700,225497.300,0.000
260110.400,256825.400,462317.500,470709.300,224602.800,209144.900,216319.200,225503.500,0.000
260097.400,256817.400,462302.200,470689.500,224586.700,209135.700,216304.600,225491.700,0.000
260091.700,256815.400,462292.100,470681.300,224575.200,209129.400,216296.400,225485.700,0.000
260101.800,256821.500,462298.000,470687.400,224584.400,209134.700,216304.600,225492.100,0.000
260104.800,256820.800,462298.800,470687.200,224595.100,209135.800,216307.000,225490.400,0.000
260098.000,256816.800,462289.800,470678.100,224588.600,209128.400,216300.800,225485.000,0.000
260094.200,256814.800,462281.300,470667.900,224578.100,209120.200,216289.800,225476.900,0.000
260094.800,256812.400,462268.700,470658.300,224577.300,209118.400,216283.700,225470.400,0.000
260102.300,256815.800,462262.700,470654.100,224589.800,209121.900,216284.300,225471.500,0.000
260099.200,256816.800,462252.300,470642.800,224585.100,209115.200,216274.700,225465.500,0.000
260092.100,256813.000,462236.400,470626.200,224569.200,209105.600,216261.600,225456.100,0.000
260095.900,256815.500,462230.600,470620.000,224568.200,209107.100,216261.500,225455.300,0.000
260106.200,256820.500,462233.700,470624.100,224581.800,209114.500,216270.000,225461.000,0.000
260100.400,256816.800,462226.600,470613.800,224583.900,209115.800,216268.000,225457.000,0.000
260090.300,256811.100,462208.700,470596.400,224569.100,209106.200,216252.400,225443.600,0.000
260091.900,256813.400,462203.000,470591.200,224570.800,209108.500,216250.700,225445.300,0.000
260100.100,256817.200,462200.000,470591.000,224584.300,209114.700,216255.200,225449.200,0.000
260101.700,256815.900,462194.200,470583.600,224586.000,209112.900,216253.700,225448.300,0.000
260092.200,256808.900,462178.800,470570.200,224567.000,209100.900,216248.300,225447.400,0.000
260086.800,256804.100,462167.600,470565.600,224558.000,209097.300,216250.400,225449.500,0.000
260089.300,256802.700,462162.800,470565.700,224566.900,209100.000,216257.300,225456.000,0.000
260087.300,256799.500,462152.200,470559.800,224574.900,209102.700,216260.400,225457.000,0.000
260079.600,256797.100,462137.900,470546.300,224567.100,209102.500,216256.600,225455.200,0.000
260073.500,256792.100,462128.700,470536.500,224563.600,209102.000,216256.100,225457.400,0.000
260082.000,256796.800,462130.400,470540.400,224577.600,209109.900,216268.600,225471.400,0.000
260090.100,256801.100,462128.600,470537.200,224589.500,209113.300,216273.500,225475.500,0.000
260082.000,256796.300,462113.500,470522.000,224580.900,209106.900,216265.800,225467.300,0.000
260079.500,256797.000,462103.700,470514.000,224571.800,209105.000,216268.000,225468.600,0.000
260083.600,256800.600,462102.200,470513.600,224577.200,209110.100,216278.300,225472.400,0.000
260086.300,256801.300,462100.700,470514.200,224590.100,209115.600,216288.400,225476.200,0.000
260085.300,256800.500,462095.000,470505.700,224591.500,209119.900,216287.400,225475.700,0.000
260080.800,256799.900,462083.500,470491.900,224583.900,209121.100,216280.300,225471.400,0.000
260082.000,256802.700,462074.300,470483.100,224584.700,209119.200,216276.100,225464.700,0.000
260090.800,256808.100,462073.700,470481.900,224598.500,209124.700,216280.200,225467.100,0.000
260084.500,256801.900,462058.700,470469.200,224592.800,209122.100,216273.500,225459.900,0.000
260073.100,256792.900,462035.900,470455.000,224577.800,209115.200,216261.500,225451.200,0.000
260070.100,256789.800,462023.100,470447.700,224575.000,209111.000,216257.200,225447.400,0.000
260074.900,256791.100,462017.500,470448.500,224587.400,209113.000,216259.300,225446.500,0.000
260073.100,256788.300,462006.700,470441.900,224591.900,209111.400,216257.200,225445.300,0.000
260068.700,256786.300,461993.800,470432.400,224581.700,209105.700,216252.500,225445.900,0.000
260067.500,256788.800,461983.800,470427.500,224576.700,209103.100,216250.400,225445.800,0.000
260075.800,256792.800,461980.900,470429.500,224589.300,209107.400,216255.400,225450.300,0.000
260078.300,256793.300,461974.400,470424.800,224598.300,209110.700,216263.800,225457.000,0.000
260074.100,256794.000,461964.000,470416.300,224589.500,209109.800,216263.100,225459.500,0.000
260072.300,256793.200,461950.800,470410.900,224584.300,209111.600,216267.400,225463.300,0.000
260075.000,256792.100,461941.000,470404.400,224589.800,209113.800,216274.900,225464.600,0.000
260077.200,256792.000,461933.500,470400.300,224598.500,209119.600,216280.500,225466.800,0.000
260072.800,256789.400,461921.300,470393.300,224589.400,209117.700,216277.500,225467.000,0.000
260068.100,256787.800,461910.100,470386.300,224579.000,209113.600,216276.400,225466.600,0.000
260069.400,256786.300,461900.600,470380.500,224582.900,209116.200,216279.500,225468.800,0.000
260071.200,256784.600,461889.700,470373.700,224589.700,209115.800,216278.300,225467.300,0.000
260060.100,256776.300,461873.600,470359.700,224577.900,209109.200,216271.300,225462.400,0.000
260054.000,256773.900,461866.300,470352.900,224569.600,209106.500,216270.000,225463.500,0.000
260061.300,256776.800,461864.400,470354.400,224575.500,209110.200,216274.700,225467.700,0.000
260068.100,256779.400,461860.700,470350.500,224584.700,209111.700,216278.300,225467.400,0.000
260062.800,256777.800,461849.300,470342.200,224579.900,209109.600,216272.100,225464.000,0.000
260056.200,256777.100,461837.800,470334.800,224572.400,209111.600,216269.700,225465.500,0.000
260065.200,256783.600,461839.000,470333.300,224581.500,209122.000,216278.400,225473.300,0.000
260073.800,256789.700,461841.600,470335.300,224596.100,209128.500,216283.800,225477.100,0.000
260070.300,256787.900,461830.500,470325.300,224593.300,209128.400,216278.100,225471.700,0.000
260063.500,256783.900,461815.800,470310.800,224581.000,209124.100,216270.300,225466.200,0.000
260067.300,256787.400,461813.800,470311.900,224584.900,209129.000,216276.800,225471.700,0.000
260074.700,256789.500,461815.500,470315.100,224601.300,209135.600,216284.700,225474.900,0.000
260077.800,256792.300,461809.800,470311.200,224606.700,209134.200,216285.300,225474.200,0.000
260075.400,256794.800,461799.800,470299.200,224594.200,209130.200,216277.400,225469.300,0.000
260076.300,256798.000,461793.600,470296.000,224590.000,209130.400,216274.900,225470.300,0.000
260078.700,256796.700,461780.900,470290.800,224594.000,209128.600,216274.000,225467.500,0.000
260082.000,256797.100,461774.900,470283.400,224597.600,209126.600,216274.100,225468.000,0.000
260073.100,256792.400,461762.800,470268.800,224583.900,209117.800,216265.900,225466.000,0.000
260067.800,256789.900,461751.300,470258.900,224574.000,209111.600,216258.800,225462.100,0.000
260069.400,256789.500,461739.900,470255.000,224577.300,209108.300,216260.600,225462.400,0.000
260076.000,256792.800,461734.600,470253.000,224584.700,209108.900,216266.000,225464.900,0.000
260071.000,256790.200,461723.100,470242.800,224574.400,209103.600,216261.900,225463.200,0.000
260061.700,256786.300,461708.100,470229.600,224559.400,209096.200,216257.300,225462.100,0.000
260061.800,256786.300,461699.800,470226.600,224563.200,209098.000,216260.700,225465.500,0.000
260065.600,256783.600,461695.000,470224.700,224579.600,209106.200,216269.700,225470.700,0.000
260057.500,256778.300,461683.800,470210.200,224575.400,209108.900,216268.300,225467.300,0.000
260054.200,256776.700,461679.200,470203.900,224569.200,209109.500,216266.300,225465.800,0.000
260049.900,256769.900,461672.000,470197.400,224570.100,209109.900,216268.600,225463.300,0.000
260054.700,256772.700,461663.900,470198.100,224583.400,209115.200,216275.300,225466.500,0.000
260056.100,256775.900,461654.700,470190.700,224582.600,209114.900,216273.900,225466.800,0.000
260052.900,256776.200,461642.100,470179.500,224568.100,209109.300,216267.500,225460.600,0.000
260061.800,256783.500,461638.000,470177.500,224565.200,209107.700,216267.700,225460.900,0.000
260075.300,256792.900,461635.400,470178.500,224575.500,209111.000,216266.600,225461.500,0.000
260077.000,256792.900,461628.200,470169.300,224575.400,209111.500,216266.500,225459.200,0.000
260066.800,256785.100,461614.400,470151.600,224556.700,209100.700,216256.200,225450.700,0.000
260068.200,256784.900,461608.200,470148.600,224551.400,209096.400,216253.000,225447.600,0.000
260075.100,256788.800,461608.500,470151.300,224564.200,209099.800,216258.900,225450.800,0.000
260075.300,256787.200,461603.600,470144.500,224567.400,209099.500,216256.400,225449.800,0.000
260071.000,256788.400,461595.800,470135.400,224558.900,209096.200,216245.800,225447.100,0.000
260067.100,256787.600,461586.800,470130.600,224552.800,209089.200,216239.100,225445.300,0.000
260074.700,256792.100,461587.300,470132.400,224565.900,209093.300,216246.500,225448.600,0.000
260084.800,256799.800,461587.900,470130.800,224580.000,209102.100,216258.400,225451.200,0.000
260073.600,256794.100,461574.200,470115.400,224567.400,209098.400,216252.600,225440.000,0.000
260072.400,256795.100,461569.500,470106.900,224562.900,209099.200,216253.900,225439.900,0.000
